time_s,Fp1,Fz,F3,F7,FT9,FC5,FC1,C3,T7,CP5,CP1,Pz,P3,P7,O1,Oz,O2,P4,P8,TP10,CP6,CP2,FCz,C4,T8,FT10,FC6,FC2,F4,F8,Fp2,AF7,AF3,AFz,F1,F5,FT7,FC3,C1,C5,TP7,CP3,P1,P5,PO7,PO3,POz,PO4,PO8,P6,P2,CPz,CP4,TP8,C6,C2,FC4,FT8,F6,AF8,AF4,F2
0.000000,0.125730,6.416240,9.692655,11.864202,8.262270,8.291236,11.901041,12.330702,9.335367,5.562077,-1.041962,-4.858726,-6.926791,-5.165936,-6.791567,-11.210371,-13.412409,-12.892706,-11.958476,-6.528620,-0.973819,3.070507,2.314324,4.955877,8.158027,11.212984,12.345131,15.762254,9.861055,5.572859,3.555968,-0.113961,0.471504,-2.092325,-6.851173,-12.979075,-15.856377,-12.965342,-8.697092,-6.226915,-5.345628,-4.866314,-2.041371,1.678599,8.603951,11.740258,13.526797,11.695995,8.975504,7.858360,7.502711,6.196464,3.426976,-0.997846,-8.316662,-10.698428,-13.065398,-10.168639,-9.508362,-10.047771,-10.977503,-9.732820
0.002000,1.260607,8.260204,10.084956,8.018456,9.146997,7.852674,12.424585,11.925374,8.407141,4.745716,-2.019323,-4.851645,-7.018537,-11.024168,-9.211774,-11.057642,-12.170725,-13.045597,-11.389495,-3.399425,1.834293,5.467078,3.719291,5.807434,8.224232,11.402113,11.365265,14.765951,10.059876,4.437792,1.637235,-0.633330,-0.996839,-4.479831,-9.424267,-11.756783,-15.240715,-13.924750,-9.071024,-4.642023,-4.354118,-2.225883,-1.956026,3.746866,8.820675,12.336971,15.536522,12.233552,9.976548,7.655512,5.767940,5.011760,2.953451,-3.685637,-9.220164,-15.309514,-12.285548,-10.047156,-8.511057,-6.726077,-9.625122,-9.070620
0.004000,3.412942,9.065055,11.162717,11.544905,11.136726,8.902536,7.753126,10.491227,6.911351,0.902191,-3.429701,-6.252213,-8.357740,-7.767711,-10.308065,-9.955454,-11.591614,-13.137634,-8.155236,-2.100932,3.283173,3.385394,4.752205,6.572568,7.563799,11.307136,15.489836,14.247765,8.378256,2.506337,-1.190358,-1.466399,-3.035418,-4.634499,-6.735732,-11.947445,-15.257498,-14.190294,-7.813723,-3.270904,-3.077164,-1.332263,1.245565,4.022835,10.412153,13.742239,14.176601,9.820893,7.962404,5.302103,6.076896,4.523369,1.096925,-3.693439,-9.284804,-13.324986,-11.061758,-8.773994,-10.175277,-5.472267,-7.701544,-5.723530
0.006000,4.231543,8.639798,9.949983,10.900178,10.021591,9.435901,9.690932,8.870205,6.335425,1.228817,-3.719679,-9.183515,-9.281649,-9.245529,-11.907328,-10.987120,-11.278861,-12.907923,-8.368206,-1.185782,3.457839,8.027753,6.462723,5.184714,9.139738,9.874146,15.688490,11.317419,6.608256,0.684270,-1.562400,-4.203058,-3.548435,-6.342942,-9.736340,-12.809240,-15.107671,-11.443525,-5.911148,-2.706738,-0.550848,0.353351,2.804993,5.117155,12.368027,14.977361,15.144656,9.180007,8.132296,2.168205,3.125308,4.468150,-0.468065,-7.120201,-10.085971,-12.143411,-12.061449,-8.639940,-8.721716,-6.277876,-8.936254,-6.626074
0.008000,4.906884,11.954184,14.840325,11.135535,7.349287,9.908621,10.237003,8.175527,2.704352,-0.269490,-5.546502,-10.082632,-9.148400,-8.382149,-9.323329,-9.936242,-10.025711,-12.443958,-3.567148,2.085279,4.795282,7.401268,9.444926,8.622825,9.330141,12.359737,15.088127,12.219162,5.814852,-0.968328,-2.770794,-3.585295,-5.951946,-8.951406,-10.230768,-12.418084,-13.464975,-10.199286,-4.884744,-1.291838,-1.332517,-0.304897,1.218711,5.304131,12.958571,14.385992,13.049062,8.931434,5.676098,2.298831,5.236550,1.644383,-1.545539,-8.805594,-13.426858,-15.291378,-12.503170,-9.279095,-7.157350,-5.896809,-8.063989,-5.943428
0.010000,7.069690,12.485052,14.655862,11.266783,8.359288,8.534975,9.851118,6.401073,3.104074,-3.809433,-6.442781,-11.324110,-12.575491,-9.486229,-7.450757,-9.539578,-11.624889,-9.301443,-2.896716,1.933768,5.106093,7.678739,7.173317,6.553246,9.521840,13.336264,12.809949,9.987782,4.738608,-3.163060,-1.247182,-5.168684,-8.120631,-7.189686,-11.474654,-14.055837,-14.003541,-9.522013,-2.232754,1.995684,-0.282460,3.275985,3.087877,9.368245,13.355591,15.068859,12.431414,8.595634,3.137240,0.681599,2.401471,-0.383825,-2.636391,-8.481383,-12.440607,-14.324243,-11.164300,-8.363112,-5.532120,-4.113040,-4.758654,-2.149654
0.012000,9.215601,12.363376,13.470379,9.129745,6.873142,7.425026,8.320684,6.129225,0.589629,-4.787817,-6.945561,-11.126267,-12.429187,-7.996865,-8.140763,-11.563914,-9.963145,-8.789860,-2.370124,5.896385,5.857864,8.614153,10.345944,9.868055,10.163931,13.398128,12.502928,8.638978,2.011680,-4.528669,-5.658375,-5.644935,-5.475812,-8.900805,-11.331583,-15.545972,-13.176029,-11.351724,-3.247182,3.874085,1.390880,3.368572,5.633669,9.325627,12.768113,15.478342,13.322200,7.561497,3.536836,-1.680350,2.123212,-1.317585,-4.462630,-8.824898,-14.860146,-13.079866,-11.545056,-9.043747,-3.335228,-2.078318,-3.648495,-0.594566
0.014000,9.989090,14.204263,14.660701,10.361858,6.554089,6.650212,8.236451,6.021458,0.704160,-6.707726,-8.086392,-12.526471,-13.375742,-9.524332,-6.897306,-8.768607,-10.023341,-7.420123,0.387322,6.568107,6.998019,9.167627,11.130166,9.627194,7.849893,11.644199,11.484950,8.510395,-0.989325,-6.703402,-4.413195,-7.078569,-7.398985,-8.584800,-10.907660,-14.114997,-12.780150,-8.948158,0.555505,7.117679,4.201396,3.155220,6.183077,10.223631,12.222291,15.644019,12.229750,6.598446,0.463353,-4.413960,1.347886,0.052308,-5.719755,-9.822355,-14.519005,-15.819985,-9.661900,-7.233034,-2.602209,-1.471948,-2.044384,-1.024103
0.016000,9.385234,14.562731,14.063094,8.957199,3.506567,7.552197,6.019750,2.759845,-0.927455,-8.936277,-9.550228,-12.362516,-12.230040,-9.587160,-5.399371,-9.942903,-10.126077,-5.270359,3.241476,9.457910,7.965036,10.743035,9.806947,9.697227,9.414286,14.117944,12.220525,5.423982,-1.241271,-7.816015,-6.696479,-7.017492,-10.508722,-7.553036,-10.642015,-13.381961,-12.797220,-5.310739,1.524826,6.309875,2.905173,3.948804,7.338054,9.728688,13.435533,13.937179,11.952443,5.501797,-0.122170,-4.508435,-0.204013,-3.235365,-8.159218,-10.486561,-13.497015,-13.781778,-12.402675,-5.361784,-1.688113,3.406194,-2.898193,0.695390
0.018000,9.777520,14.912320,12.926854,12.170615,3.894719,7.725005,5.204075,1.184404,-2.114787,-10.798099,-11.472284,-15.451376,-11.001816,-7.795697,-6.119909,-6.716602,-8.356923,-3.555629,6.230410,10.795918,10.885639,12.389108,9.578554,9.326338,6.413510,13.427078,10.687330,2.984356,-3.932161,-10.633386,-6.774216,-9.838962,-9.903546,-9.088087,-10.790106,-13.131311,-10.712459,-2.855049,4.519369,8.936141,4.102369,4.897393,7.206031,12.011674,12.097170,15.041452,11.440313,3.352163,-1.038675,-7.954682,-1.280184,-5.166498,-7.428990,-11.961607,-14.614938,-12.502739,-10.122146,-3.623125,-0.059452,3.099150,-0.692975,5.334328
0.020000,11.272016,14.906349,13.963763,7.911148,2.287968,5.576127,3.702490,0.853090,-4.261035,-13.144400,-12.678030,-12.380633,-11.711594,-7.051358,-1.230584,-7.453841,-6.390986,-4.214726,4.162213,10.921803,10.810830,12.591126,10.687303,8.221102,6.245463,10.741745,8.737648,2.153587,-4.243294,-11.756919,-8.710404,-7.729130,-9.694564,-10.181141,-8.679161,-13.708027,-9.028517,-4.205176,6.243353,10.164471,5.925439,6.286419,9.480543,11.777142,12.730922,14.169697,10.156419,2.684376,-3.150545,-7.705849,-3.792612,-5.306663,-9.164985,-13.007209,-11.357571,-13.633841,-8.753984,-3.842666,1.595781,5.410966,-0.022108,2.773128
0.022000,12.679695,15.520726,11.993776,6.002630,1.925214,3.218373,1.284777,-0.692651,-6.474615,-10.636747,-13.536319,-14.229901,-10.696284,-6.765183,-3.267157,-8.009267,-6.254090,0.550279,7.732612,13.323854,11.814409,12.953170,11.183241,6.615102,6.040148,10.199377,8.166820,-0.234668,-7.258886,-13.468525,-9.151561,-8.779828,-8.787478,-9.327711,-7.709529,-14.611624,-8.406497,-0.061209,7.574479,11.064455,6.755820,8.881466,9.750721,10.538468,11.173190,13.076044,8.294352,1.665969,-5.183120,-8.915788,-3.592742,-5.637737,-8.517606,-12.142482,-15.449842,-12.003324,-8.901827,-2.407229,3.061965,6.397158,0.753810,4.447583
0.024000,10.940558,14.168618,11.115042,4.598924,-1.100937,2.586529,0.327264,-2.305356,-6.801972,-12.771504,-13.752911,-13.479126,-12.424529,-5.417322,-0.421987,-6.480792,-4.295986,-0.865224,8.632982,13.995380,11.764944,10.778375,11.697646,5.889140,4.395075,10.603328,7.529616,-2.534266,-7.787569,-15.267913,-9.805736,-10.924417,-7.678255,-6.970424,-7.045671,-9.791457,-7.754267,1.782596,7.747912,11.083865,7.812289,9.163945,9.235142,9.714381,9.062709,12.369993,6.436224,-0.297482,-8.173096,-7.651342,-4.870593,-6.478483,-8.689278,-11.973184,-12.158870,-13.198586,-7.029254,0.445941,4.114185,8.268598,2.380286,7.207563
0.026000,13.552694,14.508823,9.624184,2.617923,-2.698232,4.192793,0.365752,-4.629155,-7.222086,-10.607643,-14.030502,-14.160417,-9.515868,-3.071523,3.602690,-5.612676,-1.720346,4.507873,9.124246,13.599606,11.928053,10.907370,9.832362,6.587610,1.513132,8.592755,5.202081,-2.467945,-11.083902,-16.563350,-10.847280,-9.865828,-8.397131,-8.599488,-6.227878,-11.120808,-7.039365,2.367448,9.261788,11.749279,7.597243,8.172300,10.314519,9.317305,8.738415,12.076895,4.940256,-1.343172,-8.653067,-9.984045,-5.191755,-5.619281,-11.950676,-12.094706,-11.402837,-12.790596,-6.832416,2.210647,5.654978,8.360680,2.892205,7.749277
0.028000,12.905860,13.794503,9.690801,0.545516,-6.476208,1.809157,-1.768101,-4.922078,-10.254538,-12.433338,-15.398461,-14.106156,-9.557866,-1.592189,2.431668,-4.586667,-0.993647,4.653221,11.603667,16.562181,12.310462,13.882439,9.765759,3.239816,2.378261,8.197764,2.364923,-3.499795,-9.472938,-14.734598,-10.865251,-10.137930,-8.665131,-5.867707,-4.858624,-9.789391,-2.751414,2.664535,11.293621,15.779846,7.891847,8.483379,9.495467,8.087093,7.691980,10.460607,4.788563,-2.036078,-10.736320,-10.950345,-8.696733,-8.268343,-9.121390,-12.253707,-9.372982,-11.100199,-5.767030,1.938996,7.711550,8.588541,5.366272,9.478743
0.030000,13.671104,14.323179,7.819688,-0.536514,-4.447041,-1.135827,-1.060367,-5.279039,-9.657273,-12.835129,-15.880395,-12.808556,-5.716162,-1.208276,4.326686,-2.564966,0.280318,4.911882,11.926752,15.396012,13.047486,12.993245,6.796584,2.220394,-0.647765,8.250363,1.980525,-7.560706,-13.064542,-15.809521,-11.619707,-12.238095,-7.127059,-4.599173,-3.385401,-9.944068,-3.685087,4.960215,11.816489,13.677809,8.061655,11.134962,7.835313,7.949839,5.557914,9.047127,4.778727,-6.101648,-9.882043,-11.852578,-8.286148,-10.087556,-11.082593,-10.927155,-7.460246,-12.097464,-1.778697,4.902272,8.770193,11.330200,5.198951,9.425660
0.032000,13.980198,13.061087,7.029348,-1.439958,-10.234800,-0.509542,-2.137522,-8.270520,-10.760048,-13.353913,-14.629448,-11.837661,-5.314156,0.558270,5.310352,-2.431741,1.303892,7.934951,13.191078,13.163724,14.740595,13.750947,5.304450,0.261621,-3.578027,7.220096,0.233021,-6.788042,-13.703722,-15.634456,-11.076894,-9.659370,-7.023659,-4.846795,-0.466025,-9.105727,-2.194901,6.755612,11.393235,16.249683,10.199666,10.142318,8.562297,6.191704,2.919389,9.532638,1.527975,-5.414811,-11.718569,-12.840189,-7.674203,-7.362528,-11.209719,-9.496648,-7.421131,-8.542103,-3.929796,7.422426,9.200376,9.988153,4.872932,8.810628
0.034000,14.198157,11.883593,4.344610,-3.934493,-8.701776,-2.611989,-2.667775,-8.191586,-9.504164,-10.630271,-16.843722,-12.107519,-3.848240,0.786851,7.670805,-0.285777,1.996531,7.690495,12.059723,12.835418,14.284848,12.172742,3.263126,-1.053312,-4.138962,4.453689,-2.310946,-7.834488,-13.425594,-15.078161,-10.725710,-10.456489,-5.682957,-2.154950,0.533660,-6.548328,-1.214397,9.224042,12.622360,14.711995,10.032887,8.327900,6.574988,6.149180,2.249848,9.127232,-1.201416,-9.538980,-12.292921,-12.869935,-7.687857,-8.774389,-10.000732,-9.769494,-2.886848,-8.513624,-1.586040,7.538715,11.316059,9.878841,6.964699,9.809876
0.036000,14.785692,10.416531,3.470869,-4.478001,-11.448125,-3.090275,-5.453493,-10.286227,-11.783250,-11.616157,-15.092991,-11.161136,-3.359307,5.936312,6.590718,-0.280873,1.463443,9.292446,12.823661,13.356897,13.805260,9.191612,2.523611,-2.394292,-6.479187,3.445512,-4.109791,-9.068819,-11.857045,-13.423667,-12.724652,-9.595400,-5.468520,-0.330038,3.335281,-5.096475,1.891516,10.726225,14.946242,12.880259,10.929913,8.731720,7.605735,3.857688,0.634737,6.927131,-1.724986,-9.898278,-12.707470,-12.838038,-8.620000,-8.809842,-8.899538,-7.693238,-3.423176,-8.679742,1.069387,9.784290,12.210435,11.790673,7.793269,9.472284
0.038000,15.147729,9.842994,0.791653,-7.309618,-13.112560,-3.939165,-4.915354,-10.159219,-11.028107,-8.411395,-14.281676,-9.296527,-1.121406,5.660453,9.284546,-0.059848,5.413257,9.481565,13.229563,12.326722,13.888347,10.620127,1.918072,-3.381265,-6.552498,2.245846,-3.209578,-11.513609,-14.445625,-12.357342,-12.804307,-9.285290,-4.834742,-0.185409,3.069648,-5.803985,3.133692,9.993662,13.865928,13.187258,10.699522,8.062343,5.738000,2.442992,-0.562753,6.666931,-2.278401,-10.058766,-13.827478,-10.910058,-9.893335,-9.695569,-7.465444,-7.152173,0.210241,-5.015812,1.988419,11.174878,11.887442,9.467952,5.668954,11.013999
0.040000,13.582560,8.902536,0.836870,-8.663400,-13.774126,-5.121442,-7.975140,-11.022770,-9.929402,-9.063757,-15.354000,-9.708539,0.538980,8.782717,12.641657,-0.383336,3.922854,11.074214,12.633126,10.044555,12.436427,8.957493,1.009617,-5.448984,-9.505035,1.662383,-5.631746,-11.391582,-14.108392,-11.082402,-12.063801,-8.318968,-1.078480,1.585476,6.053139,-4.206349,3.665726,11.875669,14.672153,10.200840,12.082387,8.120998,4.547265,2.870166,-2.245642,4.240485,-4.363727,-10.790656,-14.899047,-9.499666,-9.654040,-9.818843,-4.786429,-2.684128,2.393842,-4.176396,5.449625,10.522056,12.474562,8.778827,8.338820,10.756215
0.042000,14.562533,7.319854,-1.509082,-8.594706,-14.426177,-4.767696,-8.543612,-9.550053,-9.394878,-7.008399,-15.015475,-9.103701,1.176508,9.326630,11.951162,0.582563,6.557454,11.465274,12.186359,10.555047,14.702955,7.424793,-2.008073,-6.963674,-8.667481,0.632815,-5.318972,-11.928565,-16.274387,-9.471344,-13.866366,-6.906566,-1.343862,4.062362,6.567142,-3.110507,5.571321,12.770041,14.801280,9.980743,11.197050,8.197424,2.897231,-0.869974,-5.335418,2.325870,-7.238318,-12.395546,-14.514714,-10.139235,-9.652645,-6.832697,-8.081414,-2.222672,1.973690,-3.842646,6.574137,11.822172,13.069046,10.624671,8.421226,8.911324
0.044000,11.900471,7.512941,-3.038580,-10.896768,-13.744321,-6.242706,-8.182464,-10.537736,-10.464761,-7.126570,-14.074132,-5.854958,2.663633,12.191531,12.046564,3.317686,7.037336,9.740677,10.746023,7.847942,11.739809,5.170297,-1.413955,-8.586518,-11.684307,-0.937951,-7.585558,-11.787520,-12.596665,-5.855424,-11.513544,-5.859022,0.481778,3.615894,6.996937,-2.256171,7.188498,13.275945,13.013060,9.002588,10.585392,6.272312,3.568477,-3.171570,-6.229213,0.459535,-7.333404,-13.129749,-14.248136,-8.609775,-12.334593,-9.430479,-5.886161,-1.527601,5.800294,-2.773828,7.584310,11.747644,14.071624,8.557112,8.765677,10.378336
0.046000,12.178012,5.787800,-4.586004,-13.073113,-14.328433,-7.563368,-8.389617,-8.777518,-7.467193,-1.589023,-11.959118,-5.506119,4.662313,12.971623,12.946142,4.730716,7.969704,10.095775,10.788863,5.180287,12.362281,4.686513,-3.867890,-9.119772,-9.344481,-0.858678,-6.927045,-13.797091,-13.085586,-6.832768,-11.840082,-6.394437,1.177085,5.344991,9.422928,-0.762387,7.740373,14.852851,13.359182,7.660574,10.155756,6.035276,0.902155,-2.648568,-6.244495,-0.185495,-8.070773,-13.084726,-14.330686,-6.293779,-10.006569,-7.908439,-3.957259,1.101175,6.335143,-0.382531,10.179859,12.603489,11.142262,6.306055,7.859426,8.688225
0.048000,11.889693,0.588016,-7.566426,-13.680755,-12.548773,-7.285218,-10.542214,-8.498368,-6.799482,-2.313331,-11.919925,-5.282926,5.739688,12.764873,13.003318,6.356684,8.645268,10.928916,9.820229,3.879496,13.705726,3.158833,-5.917700,-11.646297,-10.442028,-2.633533,-7.671422,-12.224314,-11.150430,-5.147317,-11.518088,-3.899051,2.651189,8.375703,9.107812,1.167440,8.152318,13.896138,14.240765,5.040276,9.180521,5.254178,-0.695709,-6.426001,-9.455254,0.746205,-8.947336,-14.692756,-12.792248,-3.893944,-9.814463,-7.695875,-3.612504,1.817380,6.966205,-0.941944,11.035534,14.026532,11.675481,4.743368,7.836860,9.062036
0.050000,10.147435,-0.098201,-7.240969,-13.674367,-15.394823,-7.504103,-10.806935,-8.283737,-5.650686,-0.890792,-12.739670,-2.662252,7.247468,14.744263,12.481767,5.110864,8.486549,10.074276,8.385382,2.245906,8.158166,2.765135,-7.503668,-11.172736,-9.366990,-3.674356,-8.872956,-11.523214,-8.975698,-5.582093,-11.543513,-3.700316,4.240891,8.564805,10.077063,0.728548,9.802181,14.160860,13.234655,2.632366,8.773072,4.403095,-1.955566,-5.311376,-7.655452,-2.259501,-12.840331,-14.273746,-12.794370,-2.016675,-9.447770,-4.261590,-3.501398,2.515770,9.133558,0.866443,12.130848,15.173316,13.429425,2.277672,10.402116,7.967810
0.052000,8.294059,0.099106,-7.324145,-12.770538,-12.831059,-10.526695,-8.712709,-9.900818,-4.199572,1.979022,-10.279119,-0.777677,8.961362,12.918461,12.377056,6.540906,10.010763,7.526019,7.114888,-0.957424,8.342389,0.525428,-6.109773,-10.647732,-11.176025,-6.605523,-11.017808,-14.523100,-11.095204,-3.147072,-9.355511,-2.297112,6.608219,7.958009,10.449082,5.765058,11.084785,12.612916,11.119055,1.530574,8.205266,1.850422,-2.396076,-5.690089,-9.699603,-5.141324,-12.180018,-15.638535,-10.710138,0.559214,-8.075721,-4.446721,-0.689202,4.413661,10.684539,4.678599,12.365156,15.118214,9.689463,3.053652,10.410520,7.877352
0.054000,7.027126,-1.655860,-12.244804,-15.230690,-12.725665,-9.594071,-9.779839,-7.068326,-2.390889,1.871536,-7.742872,0.040580,9.804524,15.507626,9.344069,6.309109,7.972825,11.201373,6.405082,-2.023688,7.973646,0.493012,-9.260475,-13.251114,-12.037541,-6.905420,-12.281830,-11.551387,-8.351822,2.660374,-7.690969,-0.006145,8.458925,10.098249,9.661808,3.280214,10.534189,13.914875,9.741869,-0.199480,9.312854,1.062788,-3.853830,-7.542951,-9.452238,-4.577774,-12.051144,-16.276683,-9.777578,1.043696,-9.039771,-4.461550,0.831398,5.448632,10.984786,5.085206,12.894694,14.003954,7.695871,0.363266,10.308362,4.141912
0.056000,6.340459,-2.500404,-13.412706,-15.220044,-9.825928,-10.670059,-7.419048,-5.597123,-2.954240,5.008789,-6.599730,1.272853,12.453447,12.915654,10.551021,7.271379,10.055471,6.214492,3.554108,-4.707588,7.679440,-3.362111,-11.513311,-12.837055,-10.534435,-7.025421,-8.375431,-12.670641,-5.272303,5.095968,-7.711188,2.584282,8.985913,12.542096,8.230223,5.350303,11.419085,12.314653,7.462612,-2.656753,6.774787,2.018828,-5.040892,-8.370082,-7.496799,-6.161133,-11.269161,-16.454306,-8.032697,3.079796,-6.879961,-1.959121,2.547358,10.266721,10.212084,7.279532,14.470769,12.424901,8.110314,-0.838623,7.700813,6.235469
0.058000,5.817194,-3.932540,-14.101350,-13.749220,-11.275566,-10.108136,-7.806003,-4.344894,1.893444,4.397267,-5.716831,4.303234,11.093866,14.648634,8.013400,5.892177,7.435404,5.386636,3.368787,-4.778615,4.641420,-3.597757,-12.622420,-10.054448,-8.388227,-6.697006,-10.700029,-10.523984,-3.482464,4.591606,-6.995991,3.751729,8.984445,9.390362,8.203063,8.482569,12.937872,14.445634,6.105286,-4.342467,5.455374,-1.403103,-6.178992,-11.004576,-8.656331,-7.381816,-12.517058,-12.181119,-4.011048,5.517406,-6.330669,0.403290,3.012704,6.513562,9.541267,7.487297,15.157998,13.645870,6.132267,-2.441296,7.057891,3.345486
0.060000,3.347550,-3.406495,-12.491949,-15.176744,-7.874089,-11.360275,-7.335249,-4.807504,0.934287,7.259284,-5.296771,6.617311,14.349946,15.041841,7.996321,9.289301,10.038166,5.152025,0.964864,-5.306237,4.853343,-5.018829,-10.733927,-13.712644,-4.941920,-8.561301,-8.578979,-10.098347,-2.856241,5.734502,-5.483248,3.894364,13.303093,11.802208,8.085960,7.154600,13.586677,11.849172,5.144880,-5.042889,5.305113,-2.459570,-5.525770,-8.768662,-8.296204,-8.605171,-15.125921,-12.248808,-5.113355,5.416598,-5.449460,-1.338534,5.936643,5.401012,9.026452,10.152194,14.976819,13.881917,5.343121,-6.076848,7.264799,4.857206
0.062000,2.881715,-7.933514,-13.755312,-13.892855,-5.544010,-10.073900,-6.751745,-2.504369,0.954695,6.607159,-5.576033,6.875606,13.558280,13.638805,5.539306,8.103303,7.932474,5.852828,-0.361699,-8.453919,3.743092,-7.780971,-13.888790,-13.957896,-4.898895,-6.677698,-10.701660,-7.081054,-2.551780,7.880937,-3.848593,5.135620,12.171015,11.603625,5.306973,8.405659,13.340226,10.873290,1.063258,-6.370958,4.730377,-3.312653,-9.013966,-9.084166,-6.880765,-9.782613,-13.228729,-12.482890,-2.029547,8.750860,-4.794882,-0.085896,5.898577,9.437446,9.850012,8.498819,15.051869,12.457414,2.970283,-6.063860,7.435114,1.373452
0.064000,1.651334,-8.403995,-13.162944,-11.814114,-5.350154,-10.042893,-5.267158,-1.706136,4.430779,6.521618,-2.206921,7.672849,14.106519,12.261597,2.772837,8.922086,8.276462,5.863912,-2.096580,-7.883879,2.587655,-9.430134,-12.683373,-12.153346,-2.558702,-8.530062,-11.336784,-7.124436,-0.720715,6.606026,-3.585874,6.317425,12.941447,10.302538,5.135080,9.673745,12.717448,9.642028,0.377380,-7.886372,1.767468,-5.569791,-9.925404,-10.590761,-6.209494,-10.187580,-14.643619,-11.487173,-2.240163,9.685268,-3.089886,2.392449,7.459820,7.618897,8.418015,11.772761,15.517221,11.595944,0.761882,-8.596685,7.146510,0.879142
0.066000,1.069489,-7.082500,-13.678612,-11.012995,-0.919773,-10.106460,-5.413213,-0.211706,7.175736,8.226362,-1.183620,10.012991,13.574335,10.824966,1.807002,9.500764,8.750751,2.553943,-2.416340,-10.193550,-1.350395,-8.484692,-12.823632,-9.091202,-3.017055,-8.756107,-9.710768,-5.123676,0.948791,9.209849,-1.656103,8.521562,11.946629,10.499253,2.892613,11.333470,13.319916,7.110066,-1.295155,-11.298224,-0.594251,-6.579294,-10.883089,-7.225340,-5.505564,-12.409471,-14.180567,-10.170893,1.249527,11.933332,-1.166969,3.404749,6.495936,7.604535,6.810329,12.431380,15.828870,11.853786,-0.043612,-9.983128,5.950282,-0.484944
0.068000,-0.527780,-9.459048,-14.151588,-10.219816,0.266148,-10.535070,-3.179003,2.985569,6.268647,7.561393,0.439457,11.446631,14.853684,10.094548,-1.082588,9.344864,4.309199,1.083625,-3.858847,-9.730237,0.293261,-10.132266,-16.752386,-7.829412,-0.845651,-9.120544,-10.375428,-5.635241,3.446772,10.194224,-0.869763,10.468792,12.565706,8.423375,0.979220,9.212033,11.325378,6.487600,-1.859328,-12.003206,0.272664,-5.650146,-9.947464,-9.867668,-3.234346,-12.411140,-14.078966,-9.439017,3.440377,12.216803,-2.350469,3.164126,5.693885,10.201298,5.497313,13.451729,15.686218,10.030506,-3.198950,-13.439827,4.961776,-0.686113
0.070000,-1.635071,-10.293902,-13.842486,-8.203881,3.076495,-9.458653,-3.715080,2.424413,9.248395,9.523227,3.263903,11.407983,14.621955,10.120739,-1.039066,7.533082,5.286410,0.320723,-5.785479,-10.378937,-0.146563,-11.851699,-13.060331,-9.858554,1.232861,-8.865117,-8.402190,-2.751998,5.146920,12.938228,1.417287,10.607913,13.545798,9.647344,-0.817522,11.995461,11.092466,5.601776,-5.338170,-11.853661,0.351345,-7.096942,-9.756565,-9.621681,0.174108,-12.151000,-12.976102,-7.655483,4.612519,13.338681,-1.907008,4.751688,9.591866,7.579888,3.871939,14.587351,13.506010,6.918610,-5.206224,-12.320730,3.680529,-1.032633
0.072000,-3.857247,-12.183708,-13.868766,-10.135629,4.959331,-9.622961,-2.273015,4.463671,9.985353,8.677585,3.240214,13.097329,14.733664,8.441810,-4.036647,10.099283,5.216086,-1.538085,-7.247560,-11.107226,-2.683293,-12.209725,-14.404296,-6.682580,4.628739,-8.440267,-6.000340,-0.391876,6.124514,10.548210,4.623176,12.230938,11.133412,8.646144,-3.103996,9.614960,10.290472,4.919259,-3.930097,-12.649736,-2.593835,-10.473304,-11.142277,-8.858091,0.567853,-11.496012,-10.981851,-5.677712,5.958959,13.420897,0.308227,6.397437,9.574978,6.571396,2.638255,13.190823,13.489270,3.350487,-7.765811,-14.182663,2.256648,-2.990908
0.074000,-4.499440,-13.884585,-12.218919,-4.618945,4.858815,-9.254545,-1.536889,6.579671,8.102466,8.600601,4.631400,14.296791,13.486883,5.645726,-5.049832,8.967128,4.509407,-2.374220,-5.795343,-10.214352,-5.192901,-14.058597,-14.867804,-5.714143,4.760460,-9.811442,-5.844029,-1.124226,7.238749,11.968662,4.363927,12.679956,11.841586,4.707828,-4.064379,12.759550,10.558410,2.716167,-7.920083,-11.767408,-2.499519,-10.178924,-11.827564,-5.947787,1.747756,-12.120303,-12.909968,-2.596681,8.104896,15.725191,3.187099,8.229295,10.142399,7.140490,2.235654,14.027775,13.825414,5.192463,-6.890118,-15.074527,2.588813,-4.286706
0.076000,-4.694680,-12.484329,-13.431914,-4.862224,6.749219,-6.946557,0.967465,6.224492,6.830278,7.380828,6.210306,13.597084,13.406597,2.923006,-8.811415,8.237311,3.876548,-4.826944,-7.764270,-10.406796,-6.394018,-13.778813,-13.723595,-4.655219,6.831607,-7.479782,-2.658555,1.621983,8.408168,12.127406,7.482392,14.562114,12.568377,3.897934,-5.166468,12.022527,8.022424,-0.340577,-6.406092,-13.388354,-4.014297,-12.293040,-11.585776,-4.404435,3.239349,-10.919684,-10.196573,-1.703711,10.088165,15.437940,2.241592,6.734555,9.649191,4.905868,-0.663196,16.333907,12.375945,1.815319,-10.906320,-14.825025,-0.607152,-5.093026
0.078000,-5.026097,-12.802859,-11.778480,-3.794508,8.886599,-7.463800,1.649959,7.703152,8.175828,5.916607,6.538900,13.383662,14.249131,3.038922,-7.731051,6.508465,1.988572,-4.402778,-9.897473,-8.163580,-9.686448,-15.103185,-11.831133,-4.271703,10.432571,-9.509524,-4.332299,2.763654,8.031627,12.020874,6.049333,11.602166,13.957141,2.655284,-9.196669,11.336258,7.307385,-0.728020,-9.508898,-12.167900,-4.840710,-13.169124,-9.700890,-2.934639,5.422160,-11.632126,-9.988320,-1.958892,12.722472,15.344990,3.082373,9.645816,9.067017,5.802766,-2.509387,15.788350,11.259845,1.129291,-10.812051,-15.425161,1.422059,-6.274417
0.080000,-8.741869,-14.242378,-10.023268,-0.065775,11.183864,-4.286123,1.997373,8.807925,10.495707,5.086689,7.250618,14.777050,11.792763,-0.922590,-11.131448,4.904108,0.732760,-5.506119,-8.990903,-7.465779,-7.760782,-14.631247,-11.057267,0.497976,9.482431,-7.793413,-3.243018,3.475049,9.416662,9.802412,6.806057,11.878560,11.148021,0.226350,-9.183481,10.264493,8.257265,-2.104181,-10.202876,-13.072264,-7.321801,-12.133147,-9.019162,-2.236729,6.820891,-14.648644,-8.158353,2.364835,10.142503,13.497774,3.748617,10.117734,8.827941,3.020211,-3.693317,15.555104,11.153206,-2.003987,-10.416204,-15.046175,-1.777247,-6.932940
0.082000,-6.845747,-13.644728,-7.247238,2.116923,12.408813,-3.769307,6.091487,9.503549,8.170978,4.735451,8.216202,14.746300,9.617862,-1.842490,-10.739786,4.134876,-0.850376,-9.276899,-9.117683,-5.170490,-7.856390,-13.993023,-9.885263,0.439156,11.686117,-8.000898,-3.342653,3.456306,7.728374,8.608505,8.794059,14.055790,8.708235,-0.520585,-9.992764,11.843988,5.043120,-5.037634,-9.316077,-12.448528,-8.136429,-10.966745,-8.458274,-1.154211,6.804105,-12.085690,-6.940043,3.643523,12.561085,13.667575,4.367966,12.179470,9.612491,2.548847,-5.521395,13.057153,8.922164,-2.400761,-12.715776,-15.012877,-4.274314,-8.437011
0.084000,-7.796358,-12.825560,-8.488015,2.673703,11.724022,-5.450143,4.923486,8.802801,6.943631,1.993609,10.668909,15.504095,9.823832,-3.854392,-12.293848,4.737406,-1.861417,-7.763033,-8.085638,-6.524937,-9.747647,-15.312917,-9.771339,3.419682,11.528065,-7.354165,-2.194782,6.050538,9.024658,5.980948,10.224322,14.975296,7.394322,-3.657864,-11.833544,10.754742,2.494549,-4.113422,-13.120868,-11.164893,-7.217944,-12.779404,-8.744144,2.110958,9.487357,-11.337443,-6.643024,4.434569,14.127399,14.027518,5.359297,8.100189,7.198022,2.517734,-6.953617,16.203610,8.360063,-5.229382,-14.362602,-14.130374,-2.895669,-8.429559
0.086000,-9.042277,-13.339965,-7.391076,3.657403,12.439761,-2.093738,6.319677,10.526402,6.379351,-0.185939,11.256211,12.866441,7.312296,-4.121584,-15.038405,4.220074,-3.204631,-8.155345,-8.623981,-2.525852,-14.319564,-13.952781,-6.377172,4.986023,13.554343,-5.827251,0.192888,6.431108,10.538840,7.994706,11.489369,13.850577,8.319124,-3.779962,-11.723840,10.579043,3.797253,-5.082870,-10.876022,-8.475250,-9.106139,-11.280331,-6.774620,2.001368,10.174396,-11.679866,-4.549257,5.733103,14.015961,13.269125,10.277290,10.392593,6.860202,1.533170,-6.317222,14.438960,5.218219,-5.483449,-12.755430,-12.441256,-4.014841,-7.293640
0.088000,-10.133432,-11.990879,-5.399692,6.260034,12.589130,-2.338993,7.914213,12.056983,6.789298,-2.050297,11.005749,13.078355,6.517961,-6.281097,-14.134678,2.411800,-3.394479,-8.264605,-8.522760,-2.156147,-12.610271,-15.503118,-4.658012,8.488666,15.280321,-5.529622,0.200096,8.096582,9.962023,6.579189,12.383373,14.447060,5.135488,-6.353274,-14.061648,7.380103,2.760445,-7.828312,-9.827369,-10.069644,-13.188900,-13.704754,-5.684366,3.309460,12.773181,-13.240364,-2.642835,7.466273,14.946041,11.244283,7.601905,10.431439,6.160832,-4.278551,-6.461521,14.405805,6.683052,-8.102826,-12.745522,-9.435930,-4.190049,-7.986320
0.090000,-11.174319,-11.158022,-2.350674,7.539840,12.864918,-0.044754,10.271930,9.218373,5.661378,-2.974525,13.279183,12.339862,4.955114,-7.585632,-15.241490,3.952589,-5.283834,-9.982185,-5.640073,-0.071005,-13.019001,-14.264849,-2.745582,9.409384,16.032411,-3.291172,1.919792,8.913060,10.242560,3.353654,12.459223,12.447606,4.108521,-7.723623,-13.085417,7.991230,-0.356780,-5.659507,-12.186230,-7.331326,-10.225579,-12.253122,-4.260142,7.499128,11.550229,-11.125402,-3.612562,8.303130,14.634762,8.389435,7.941508,12.307677,5.436906,-4.027669,-9.244058,11.162680,2.905582,-9.119860,-15.865859,-11.309519,-5.248415,-11.009432
0.092000,-9.749513,-10.451804,-2.021372,10.192039,12.997312,1.144519,9.286110,11.508579,5.304648,-5.150347,12.824322,10.738927,2.328451,-9.157405,-14.247883,1.395083,-5.762212,-10.660422,-7.990835,0.956168,-14.014792,-14.695524,-1.937125,8.564946,13.556129,-4.516147,3.031607,10.144586,6.652628,2.456578,14.328718,11.805265,4.843179,-8.722868,-13.258458,7.524803,-1.601172,-8.295140,-10.036968,-6.261275,-10.172379,-11.895713,-2.188012,7.781262,13.466541,-10.858153,0.186822,8.431073,13.191607,8.049102,9.626949,9.385041,6.109019,-5.412925,-9.573112,12.538045,1.664759,-10.713212,-15.689113,-10.575756,-7.191813,-9.575181
0.094000,-9.476650,-10.111598,1.064819,10.542702,12.621194,0.298482,10.940838,10.468363,4.037067,-4.103105,11.691509,11.760606,-0.850630,-11.318406,-12.902367,1.037103,-5.719611,-10.271633,-6.277553,4.292290,-12.990965,-12.640535,0.636595,10.790534,12.246597,-2.554322,3.225227,8.078136,8.132865,-0.813573,13.903887,11.641032,1.309017,-9.655615,-13.661250,6.940349,-2.518503,-9.818790,-10.693449,-3.566649,-13.044610,-11.327136,-1.340245,9.478637,11.248357,-8.860324,0.592024,11.902434,12.659017,6.479283,11.268616,9.660533,2.083690,-5.565573,-10.597672,9.081922,2.960844,-10.568194,-16.814300,-6.530112,-6.737389,-9.075543
0.096000,-9.745701,-8.025960,-0.635576,10.796385,14.074376,3.234784,11.020839,9.226261,0.627684,-8.641995,13.904711,11.200596,-0.900576,-11.123688,-13.051715,-0.125011,-6.973760,-8.582704,-4.119434,5.671859,-16.134924,-11.534727,2.529572,13.244764,14.853678,-1.512248,7.693113,9.908525,5.259550,-1.254175,15.120647,12.349049,-0.771782,-12.796264,-14.492827,3.779878,-2.993536,-7.721721,-8.377520,-0.862634,-12.438153,-9.711545,0.664612,10.906819,12.634249,-7.187746,3.134572,11.649612,10.684219,3.099741,9.994431,9.983448,3.760142,-8.172400,-10.028855,11.325771,0.488007,-11.622843,-13.762822,-3.643843,-8.956664,-9.576592
0.098000,-10.223742,-6.653128,3.808601,12.307223,10.538008,4.376902,10.013617,11.211480,-0.160051,-9.884752,13.300179,8.862550,-1.602693,-11.056727,-11.820449,-3.175461,-9.187820,-9.615818,-2.738047,6.796199,-15.345299,-10.759496,2.822262,11.832074,15.254208,1.016376,4.298590,9.695517,5.801981,-1.889255,15.169429,11.220820,-2.871094,-12.073711,-11.435261,2.844398,-2.978065,-10.514960,-8.542976,0.584559,-14.469670,-9.285509,1.633519,10.827297,11.253600,-6.736184,0.824306,11.668505,10.283241,1.687435,10.798324,9.714309,-0.031087,-9.855007,-11.654201,9.580773,-1.910028,-12.331759,-13.841508,-2.985661,-8.659698,-9.340564
0.100000,-11.055298,-6.072987,5.082684,11.360292,9.573347,6.730387,12.687088,9.149812,-2.745625,-10.275320,12.125029,9.819303,-4.080637,-13.094554,-12.970561,-2.176120,-9.527853,-8.989728,-0.899727,7.294079,-14.137505,-9.666836,4.646212,13.515638,11.902021,1.528631,7.182007,8.844973,1.794355,-4.578137,15.142465,8.705674,-2.423154,-12.834352,-12.599485,3.984125,-4.215070,-9.854489,-5.940169,2.217587,-13.804437,-9.433328,3.442161,11.806148,10.462339,-7.397745,4.087053,10.799258,9.209870,0.478912,11.795394,8.823413,-1.630416,-8.451291,-9.997473,8.752236,-4.198675,-14.033530,-10.739017,-3.046388,-10.841540,-8.226431
0.102000,-12.379584,-6.002202,3.900800,10.783093,8.957043,5.682082,13.188864,6.209171,-3.162360,-10.282600,13.857666,8.006628,-4.730542,-12.782751,-10.293579,-3.764798,-9.142288,-6.379595,0.716171,5.835646,-13.715762,-6.797961,5.935241,14.651428,11.648007,1.642189,8.703249,8.983970,1.669664,-5.379295,15.149681,8.384866,-4.046005,-14.462775,-10.759613,2.039374,-7.430198,-11.713634,-6.175323,1.939077,-13.882175,-9.143283,5.354217,13.721871,11.241350,-4.505731,4.795998,10.657384,10.241322,-0.624755,12.911468,6.125627,-3.556544,-9.492249,-8.084976,6.406371,-5.601300,-13.611786,-11.346506,0.397625,-10.479640,-6.539343
0.104000,-10.822659,-3.199366,6.629541,12.209283,6.033695,8.644738,12.051665,6.362110,-5.990123,-11.935683,12.761977,6.497759,-5.560314,-13.666486,-8.654822,-6.497165,-10.836691,-7.453998,3.243819,9.671213,-14.379938,-5.370584,7.410557,13.088639,9.981909,3.620253,9.397972,7.941257,0.622328,-5.526632,14.110914,6.245335,-7.594600,-13.215616,-10.919932,1.624770,-5.470453,-10.718841,-4.841783,5.106957,-14.576024,-7.148118,4.794514,12.992963,8.347354,-4.183091,5.684783,12.653008,8.151748,-3.391232,10.954756,8.413640,-3.654800,-11.378380,-9.691457,6.541697,-7.994781,-14.700107,-8.443274,2.262432,-10.231401,-5.716565
0.106000,-9.701740,-3.153187,8.715929,11.901496,4.994712,7.787949,12.246742,5.617786,-7.596435,-13.112227,12.358613,4.909029,-8.336041,-12.402033,-6.293028,-5.475981,-12.201577,-6.570740,2.231751,9.801338,-13.206935,-6.599587,9.125063,13.510242,6.191596,3.788093,8.275395,7.762736,-2.160245,-7.017688,15.147746,5.521633,-9.804188,-15.687163,-9.136491,-0.776086,-8.383503,-7.419681,-3.176225,7.446772,-12.898194,-5.325489,7.396180,14.249618,7.847049,-2.069618,5.379417,11.810380,4.938011,-6.599948,12.375302,4.614839,-4.305483,-14.116985,-7.866311,4.862535,-8.291084,-13.955326,-6.296463,3.028130,-11.279009,-5.870348
0.108000,-11.085448,-0.484014,8.465104,10.584056,3.680205,9.462519,10.577216,3.498412,-5.750284,-13.185259,12.869018,4.068340,-7.676679,-12.424194,-6.258013,-6.044890,-11.413609,-4.642831,8.197064,10.177439,-13.329101,-2.749680,7.832184,12.843814,3.927381,3.116376,7.953917,6.622079,-2.988503,-9.005012,14.830542,2.931623,-9.871461,-15.397006,-6.362976,-0.578157,-7.936975,-9.558527,-2.355631,7.436794,-12.987066,-4.489358,8.622571,13.894553,5.745086,-2.217486,7.907122,11.620222,4.400939,-6.733703,13.850100,4.575635,-8.229879,-12.373647,-6.555269,2.040819,-11.352949,-13.126746,-6.325154,7.207880,-9.156032,-4.103519
0.110000,-8.746494,-1.154123,10.094217,9.294963,2.711731,9.777166,10.218446,2.928830,-9.210487,-12.681953,9.504373,0.371898,-8.250853,-11.654233,-3.254375,-6.993987,-9.748423,-3.125230,7.212819,10.967249,-14.373972,-4.154428,10.355370,14.402746,4.673815,5.147733,11.620805,4.677570,-1.425375,-7.314406,13.283991,2.496355,-9.608242,-14.159033,-6.303032,-2.615540,-8.715906,-8.635418,1.525915,9.277634,-12.492240,-4.036650,9.722775,12.623686,5.143624,-0.577224,8.606319,9.494172,2.677244,-6.724147,10.815162,3.836716,-8.711762,-13.663473,-5.739578,2.780522,-9.188060,-12.777015,-2.165599,8.287163,-7.636002,-3.980304
0.112000,-7.969674,2.088398,12.017191,9.401351,-1.099860,12.798196,10.861899,0.672280,-9.833210,-11.036936,9.733535,0.912404,-9.593688,-11.412682,-1.546860,-7.699039,-10.236510,-0.970588,7.113554,11.683172,-11.370499,-1.658931,12.147871,12.896851,3.303428,6.910395,11.381195,4.245419,-3.704365,-7.440337,15.701999,0.274345,-11.616976,-14.676485,-2.563173,-3.901839,-9.330073,-7.154350,2.233387,7.429899,-11.706646,-2.803913,11.227114,14.382806,3.199873,0.292439,8.333157,9.839386,0.730477,-8.829665,10.224561,1.156742,-10.025422,-9.980139,-2.465490,1.004064,-10.246743,-10.784651,-4.192031,7.967427,-10.366236,-2.351866
0.114000,-6.883391,2.369137,10.287406,5.608336,-0.085596,12.549423,11.245103,-0.144241,-9.011267,-12.397513,9.804128,-0.483378,-10.132355,-9.160681,-1.663604,-10.858950,-9.976203,-1.504951,8.470587,10.447613,-12.409557,0.405554,10.362992,13.517480,-0.648570,5.965334,9.212077,3.608450,-5.633545,-8.237918,12.600624,-0.578945,-14.214828,-11.833534,0.706923,-4.838579,-10.267639,-6.699193,4.240331,9.259682,-14.145506,1.269117,13.991855,11.495394,-1.155931,1.242972,9.004768,7.701611,-1.223808,-9.777331,11.242568,0.701401,-11.362569,-11.106458,-1.729506,-1.532858,-12.147621,-11.346478,-0.358087,10.940375,-10.272173,-1.757670
0.116000,-7.874768,2.298928,9.923442,7.581158,-3.395500,14.937484,9.375527,-0.942928,-11.653997,-10.660062,9.608014,-4.200703,-10.643455,-10.030164,0.607505,-10.303747,-8.325447,-0.766304,9.560128,9.142182,-12.672578,2.172237,11.657515,11.637987,-1.391286,8.747489,8.816182,0.825184,-7.556727,-8.405739,10.317648,-2.725116,-13.418032,-12.046766,-0.436159,-4.224221,-7.070418,-6.005226,5.389228,10.166025,-10.864673,2.221473,12.464114,12.165596,-0.251010,4.051236,11.002894,7.486073,-2.738240,-10.493055,11.022173,-2.800228,-12.707899,-10.586792,1.829592,-0.275214,-11.539548,-10.842189,-0.669662,10.466836,-11.069572,-1.836282
0.118000,-6.404898,4.320493,9.441049,6.055779,-4.335519,13.558914,9.231495,-4.622823,-13.243304,-10.086742,7.745697,-3.378539,-9.740737,-8.723608,3.788492,-11.111598,-9.442611,2.128768,8.636355,8.006870,-9.648976,2.457167,15.123664,10.857034,-3.732738,8.230267,8.491497,-0.040032,-8.628925,-7.798256,9.094048,-4.409109,-13.551664,-9.349693,2.649859,-7.068451,-9.074183,-4.572127,6.880262,8.882396,-11.947821,2.877866,14.956358,10.940801,-3.529187,4.469132,10.230400,6.736204,-1.550020,-10.485023,9.203721,-2.791573,-12.021264,-9.196128,2.249403,-3.896675,-13.632317,-10.300783,3.109513,12.975957,-8.785255,0.287368
0.120000,-5.184070,5.689502,10.688068,2.511448,-4.961850,14.054936,8.880006,-5.281489,-13.547809,-7.831113,6.397882,-5.198666,-11.875235,-7.579857,3.736784,-10.917148,-5.317558,4.342837,11.898854,8.094386,-7.234148,4.169803,12.725564,8.811348,-5.681758,7.812412,6.708406,0.325718,-9.450836,-6.892486,8.785728,-4.946340,-14.724475,-10.774630,5.678554,-7.981905,-7.434807,-2.456220,5.483629,7.387365,-9.807426,5.375932,12.777798,10.892546,-2.844203,4.977801,11.431943,6.951047,-6.537441,-10.274998,8.762199,-4.616872,-12.274238,-8.290511,3.583883,-4.455627,-12.662269,-7.832819,5.566581,12.458495,-8.601618,2.636567
0.122000,-4.884781,6.810745,9.495420,2.739609,-6.264254,14.221419,6.870708,-7.433479,-14.593083,-6.244165,5.268525,-5.304808,-11.936818,-4.881921,5.094851,-11.161425,-6.632212,3.640597,10.807727,7.547765,-6.977342,6.284701,13.369651,8.132555,-7.652826,9.376828,7.140221,-2.017138,-7.084032,-8.065937,6.329995,-6.810905,-14.703307,-9.172137,6.284882,-7.751631,-9.087773,0.529365,7.828647,6.525142,-8.375008,6.856944,14.404958,7.090527,-5.823713,4.084252,12.426678,3.559484,-7.708073,-9.286365,8.410335,-7.025489,-13.116097,-9.007429,5.148817,-6.731913,-11.910869,-7.530627,4.903116,13.603861,-7.539866,4.711956
0.124000,-0.917205,6.348480,8.997256,0.214720,-6.768513,12.820097,6.115043,-8.253527,-12.766647,-6.426573,5.083781,-7.565374,-11.029731,-4.556332,8.434103,-10.324364,-5.945530,6.009504,11.577340,5.533732,-5.764915,6.743248,14.063069,5.667133,-6.667693,7.716832,7.512126,-4.296133,-9.568799,-4.542660,7.737853,-7.789267,-14.841920,-5.266880,9.100583,-7.183423,-7.302578,1.104127,8.057527,6.131378,-8.289770,7.515040,14.983409,6.107576,-7.491621,5.614986,10.012164,1.841334,-5.283148,-10.538888,7.629451,-7.484856,-14.126077,-5.726298,6.585680,-7.605216,-11.238620,-4.399237,7.343145,11.413226,-8.054082,5.139194
0.126000,-2.079885,6.896294,8.396477,0.440210,-8.323380,13.276387,5.671267,-10.881738,-13.967446,-0.763703,4.721618,-8.074246,-12.058129,-2.986565,8.824535,-10.764582,-2.455709,8.106689,10.997311,3.822777,-5.346494,7.922848,12.874564,3.112541,-9.104176,8.866024,6.265596,-5.533863,-9.530598,-5.097991,5.017787,-9.476835,-15.122314,-5.937307,9.928963,-7.345380,-7.734616,3.909424,8.753506,5.899503,-5.876385,8.589646,15.287374,4.874483,-12.388622,7.085259,9.563443,2.162808,-7.602977,-9.736171,5.816607,-9.113623,-13.393603,-4.456210,10.100203,-6.413070,-11.657678,-6.435800,8.738997,11.803992,-6.441377,8.111172
0.128000,-0.179863,8.748290,8.331944,-3.812589,-8.936239,14.490037,1.592744,-11.470152,-11.416373,-1.057200,1.419417,-8.521863,-12.053157,-0.021060,9.066362,-12.293672,-4.371945,9.242686,11.239817,1.170444,-6.738132,10.243669,11.967868,3.567613,-10.401046,8.669763,3.560518,-4.784181,-10.694581,-2.539898,5.167209,-9.585423,-14.861247,-2.037593,9.358660,-7.727644,-6.080689,2.056528,9.068225,3.605344,-6.077852,11.360583,15.093625,3.392226,-9.684049,8.321213,7.458316,0.981954,-8.724107,-8.827667,5.426884,-8.260486,-12.458247,-5.762581,10.655817,-5.330562,-12.465024,-3.521282,8.016187,9.420288,-5.243034,8.130631
0.130000,0.298655,8.492525,5.665735,-4.089858,-8.762353,12.410893,2.147073,-12.147059,-12.837945,0.200637,-0.398783,-10.419621,-10.577375,1.977442,9.917005,-10.392328,-2.504079,10.193328,11.378924,-1.442988,-2.302485,11.397162,11.615934,1.652580,-11.464740,10.263535,4.241703,-6.881462,-9.970051,-1.202899,2.063662,-12.037797,-14.957538,-2.113488,9.490077,-7.760574,-4.661636,4.327883,7.616424,2.633335,-3.876801,12.152336,14.661830,2.259813,-12.556743,6.596883,6.357412,-2.594369,-8.232786,-5.781428,1.606540,-11.202622,-12.596302,-0.203724,13.778499,-9.177143,-11.618347,-2.636944,9.941282,9.112078,-2.390178,8.355924
0.132000,3.186204,9.466189,4.139014,-3.769558,-9.975928,12.540876,-1.951616,-11.958972,-11.943597,1.784474,0.197844,-9.485991,-8.378315,2.893491,9.655316,-9.378399,-0.769461,10.819889,9.365781,-1.134818,-1.520250,11.158411,10.844695,1.256305,-11.144188,8.678785,1.463714,-10.285449,-9.059594,1.087691,2.295190,-11.346232,-13.997451,0.764437,12.581927,-9.460823,-5.496616,5.565864,7.604226,0.494391,-1.197698,13.698213,12.817715,-0.142305,-14.869792,9.609088,7.342376,-1.800226,-9.786375,-4.788462,2.394045,-12.960351,-11.486593,0.824658,13.254049,-9.536904,-8.729856,-1.196887,10.007166,8.527128,-3.883962,8.874320
0.134000,3.936830,10.119638,2.077608,-4.506552,-7.409732,11.755818,-1.121873,-12.451680,-10.903522,4.357509,-1.059721,-10.587829,-7.210410,1.050588,9.506570,-10.292376,-0.279326,11.096068,11.254713,-3.352522,-3.012612,11.846721,9.686310,-2.775270,-12.317136,7.963068,-0.550809,-8.791689,-9.307947,4.130178,1.767893,-11.535808,-13.583903,3.437448,14.252134,-9.469400,-3.767540,6.876553,6.496929,-0.566715,-1.681242,14.112093,11.823803,-2.265697,-13.922898,8.020171,5.997385,-2.513389,-9.361091,-4.136411,0.032573,-12.445227,-11.906289,2.091312,14.537869,-10.187235,-11.662255,1.406241,10.385237,6.740169,-1.236327,12.512139
0.136000,4.220967,7.697885,4.478998,-8.860448,-8.794553,11.696236,-2.835981,-15.479827,-8.568461,6.516345,-2.734357,-10.242058,-8.048293,4.078100,9.305031,-11.585024,1.719032,11.623297,7.353014,-7.627468,0.271989,12.269883,9.311039,-4.745720,-11.661079,9.545769,0.250836,-10.975533,-7.953982,4.664086,-0.104795,-13.741132,-10.303522,3.920122,12.740087,-7.426384,-2.171417,8.037335,9.266910,-1.734939,0.863115,14.050058,12.098182,-3.059569,-13.368332,8.183850,6.400548,-5.090834,-10.676434,-0.569778,0.272901,-13.337826,-9.972248,4.532736,15.087165,-9.314103,-7.628026,2.313159,10.992328,5.053866,-0.237144,10.815160
0.138000,2.302324,9.445745,2.070853,-8.074175,-8.441256,9.922931,-5.048805,-15.321205,-7.554977,8.836522,-2.324590,-11.359720,-7.140152,5.114901,9.621471,-10.095430,4.019846,14.189127,6.843704,-8.280278,1.316168,12.142616,9.489311,-7.027901,-12.333750,8.367576,-0.711040,-10.829421,-7.174546,5.732486,-3.799732,-12.176694,-9.022294,4.445664,14.759208,-9.010507,-0.375562,6.402777,7.369323,-3.480690,0.537644,13.883518,9.852368,-3.717930,-16.339658,10.591704,5.714752,-5.625085,-10.155239,1.009934,-1.621886,-10.886081,-9.033019,4.888813,13.549143,-8.304929,-9.955354,3.791213,9.209558,3.796905,0.282330,10.591236
0.140000,5.413425,10.121732,2.194269,-7.937853,-4.073609,9.234059,-7.012635,-14.054273,-4.780936,9.855888,-3.194913,-9.706899,-4.255508,5.974162,9.789228,-8.897501,4.967160,12.213177,5.874327,-8.208118,4.493612,12.237707,6.895454,-10.712080,-10.699875,7.622383,-1.130003,-12.771603,-6.004097,8.160521,-3.342209,-12.182637,-8.093935,6.595369,11.636768,-8.332039,0.713011,10.279253,5.652109,-4.831252,3.733389,14.373745,7.438217,-8.794220,-13.575321,8.973333,3.391904,-5.891751,-6.547327,2.279894,-1.377479,-12.166055,-9.037126,8.484916,15.574995,-10.629308,-7.794778,5.967925,10.004918,1.725512,0.927505,12.662547
0.142000,6.828953,8.171103,-0.644435,-9.366379,-5.028216,8.633090,-7.373072,-16.669000,-5.006400,11.761132,-5.568708,-9.997134,-2.770560,7.585114,7.012956,-9.510954,6.074988,14.665502,4.948754,-9.634563,4.745466,11.707404,6.754313,-9.267541,-10.595977,7.150412,-4.748323,-11.743794,-5.105718,9.128293,-5.084472,-13.897802,-6.270592,9.562515,13.280401,-9.243370,0.390611,9.303772,5.482738,-5.905974,3.037764,14.343691,6.136965,-8.939532,-14.507205,9.838140,2.834113,-6.816383,-5.982893,3.296570,-4.121050,-14.161886,-7.227713,8.579545,14.832544,-11.321211,-4.911237,7.706798,8.765323,-0.622244,3.763492,12.106874
0.144000,7.853171,7.101744,-2.680964,-7.448818,-4.675423,7.412621,-9.026778,-14.915393,-2.383314,10.882071,-6.285957,-10.447652,-1.258375,10.424512,6.239682,-7.105263,8.385733,12.035577,2.862429,-12.649166,6.051757,13.235278,4.413068,-8.393847,-8.744193,8.096906,-4.023376,-12.329696,-2.419292,8.725579,-4.791936,-15.664595,-5.130468,9.788768,11.617129,-7.404128,1.090446,9.165986,3.315132,-6.724537,5.081630,15.060896,4.814320,-9.513820,-14.044741,10.309152,0.439500,-8.228873,-6.266907,2.926623,-5.372570,-15.312568,-6.298454,9.101355,13.277868,-10.157855,-4.788540,5.829260,8.068398,-1.206239,3.882011,13.527385
0.146000,6.847954,7.989392,-2.725177,-10.297592,-0.125110,5.287875,-9.737718,-14.127868,1.092984,12.716951,-6.231354,-9.168893,0.828751,8.705427,4.753515,-7.237123,10.489850,15.972781,0.933928,-10.844417,7.059043,12.193744,3.030358,-10.487347,-9.700071,6.436899,-5.720507,-12.686319,-1.404231,9.747877,-6.746316,-15.727790,-4.381381,11.282074,10.631611,-8.587758,3.039738,10.088103,1.820093,-8.884408,5.633804,15.097074,4.624057,-11.349081,-12.953017,9.621678,0.473727,-8.875912,-5.492274,6.879399,-6.441149,-12.063525,-3.912653,13.782125,13.029492,-10.379656,-4.127697,8.044877,7.544461,-3.062482,6.650249,11.468771
0.148000,9.810825,6.705718,-4.482875,-8.601237,-0.701480,5.826775,-11.860582,-12.160107,0.760259,13.182326,-8.005172,-7.943885,2.722992,8.468041,2.247762,-4.096698,11.288742,10.857500,-0.403834,-12.544700,6.472650,11.686217,1.302425,-12.705805,-7.586318,4.648527,-7.133656,-10.296633,1.190963,11.989426,-6.397228,-13.935367,-1.838370,11.433783,9.133840,-7.182278,5.188544,9.239627,0.892675,-11.754947,8.757388,15.782995,2.615514,-10.963673,-12.169411,7.521627,-2.714781,-8.637031,-2.861384,8.035877,-7.194392,-13.987902,-2.583313,13.603771,12.548660,-11.145704,-1.215043,8.251504,7.611668,-4.242536,8.322958,13.880166
0.150000,7.092247,6.465149,-6.781456,-9.638280,2.343725,2.356748,-11.409667,-11.930815,3.363554,14.800674,-9.661094,-6.696109,3.009580,9.875087,2.204938,-3.067185,8.655449,13.539541,-2.330447,-13.579165,6.733916,11.431966,-1.037523,-9.792447,-6.551607,7.262916,-8.868308,-8.279740,2.283526,15.237581,-9.124205,-11.478853,-0.758869,12.188859,7.399238,-6.268651,6.455323,8.379199,-0.540145,-10.336983,8.618362,15.532118,1.486965,-13.482222,-9.781962,7.528264,-1.834711,-8.482574,-1.754292,7.930752,-9.358965,-15.748399,-0.692459,13.719948,11.203040,-10.497065,0.165978,8.377431,5.692626,-5.973947,6.227754,13.749878
0.152000,8.071609,4.255569,-7.431389,-6.609210,2.113256,1.136206,-13.866140,-11.978244,6.185722,15.260353,-8.908635,-9.236178,4.602139,9.001966,1.212951,-2.638375,13.031417,10.199383,-5.453973,-14.975935,9.556578,11.040869,-1.724230,-11.059488,-2.172564,3.947800,-9.636772,-9.560127,2.743755,13.430966,-11.329030,-12.030299,0.928764,12.039778,6.401503,-5.444486,5.160430,8.896692,-2.751944,-12.229010,10.103251,13.579548,-1.305755,-14.686163,-8.181369,6.913539,-2.266482,-9.212011,-0.857914,8.195851,-11.315483,-13.023771,0.909877,14.595827,9.842981,-11.064739,-0.206468,9.791464,5.243062,-6.405164,8.784692,12.028063
0.154000,9.882042,2.078815,-5.678599,-7.263965,4.322293,-0.293016,-13.871536,-10.891901,6.871576,13.219178,-10.224316,-5.858660,4.011038,8.599682,-2.116345,-2.586422,13.223506,9.974631,-5.634285,-16.271248,9.905321,11.091580,-3.180974,-10.674536,-2.727147,4.318306,-9.717653,-9.118465,5.687346,14.561139,-12.000825,-11.060686,0.570999,11.311704,3.724547,-3.772604,5.497829,6.786951,-4.615284,-11.435067,11.836956,13.252650,-2.368970,-13.092451,-5.719354,7.240126,-6.523585,-9.490967,0.555186,10.783913,-12.016252,-14.603988,2.039545,15.291724,8.084875,-9.542359,1.922828,8.357333,2.064154,-7.871780,9.089757,10.893974
0.156000,9.101245,2.353567,-7.853977,-6.658156,4.438265,0.591200,-14.549108,-9.503466,7.279566,14.120694,-9.365602,-5.273207,4.934107,7.138302,-2.030170,0.216707,13.508355,8.864766,-8.511179,-13.817647,10.775394,8.450961,-5.844171,-10.374738,-0.534485,2.357206,-10.615571,-9.574272,7.284988,15.098257,-10.645412,-11.157871,3.579255,12.740065,4.016018,-2.683477,7.641544,6.890977,-4.946566,-12.408052,13.326352,10.813397,-3.501065,-16.790021,-3.582828,6.436370,-6.302251,-7.732776,1.153528,10.258036,-11.422294,-10.676553,4.769137,16.463947,7.034691,-10.463927,4.753726,8.499551,2.575290,-10.414524,8.879640,11.336493
0.158000,11.050246,0.879334,-8.404897,-6.882423,5.662660,-2.106293,-13.324536,-6.335660,7.311585,14.347827,-10.455668,-4.760379,7.221493,6.983281,-4.957670,0.565909,12.625869,6.980529,-10.543440,-12.318836,11.101024,7.284227,-5.122119,-9.501513,-0.571701,1.541904,-12.787086,-7.481891,9.602873,12.126418,-13.454881,-10.625792,5.898235,12.024474,0.195312,-1.587010,9.226425,7.875226,-3.904029,-11.277740,13.708607,10.309136,-5.962223,-14.311459,-3.422451,6.395981,-5.681994,-6.978405,3.428485,12.201201,-10.981837,-10.622189,4.749685,15.657464,3.761221,-6.845927,3.901530,8.077951,-0.489248,-8.329628,10.102769,11.564367
0.160000,9.122797,0.936817,-9.549355,-2.217107,7.893146,-4.078476,-16.363446,-6.789295,13.065701,13.617413,-10.286277,-4.548502,8.380869,6.410730,-4.651483,1.795929,13.514565,8.444177,-10.879952,-12.384380,11.129046,6.768233,-6.304330,-8.123321,1.757046,-1.849945,-12.630600,-6.646667,10.143478,14.166469,-12.828144,-8.384285,6.380266,9.291126,0.233265,-1.454262,10.718661,6.615295,-8.124122,-11.209354,13.507083,8.782400,-6.627515,-11.058050,-0.195231,4.921301,-6.696549,-6.073236,4.752292,9.224233,-14.164838,-11.219979,7.384645,16.037404,1.594864,-6.065729,5.275546,9.241659,-2.797990,-8.838654,12.496348,8.852834
0.162000,8.079738,-0.817330,-10.243798,-1.761751,9.910027,-5.584285,-15.393615,-5.084943,12.218011,10.434520,-9.610758,-1.123010,9.017363,2.909003,-5.862092,4.865965,13.957667,4.794450,-12.513909,-13.325681,12.424940,4.541149,-7.383054,-9.388079,2.455719,-2.702756,-12.442142,-6.479739,11.634553,12.769073,-11.226820,-8.654020,7.004012,10.509764,-3.074450,-1.093249,9.240307,3.846922,-7.930028,-11.859589,15.673642,8.774677,-9.062460,-12.765852,-0.547398,4.446193,-7.435985,-6.562330,5.959044,9.591191,-13.093035,-9.474689,6.509355,13.426986,-0.309158,-8.876992,6.138121,8.288072,-3.620872,-9.851467,14.095544,8.201608
0.164000,8.008882,-3.806454,-8.767426,-0.284452,11.696357,-5.334419,-13.743944,-2.789548,13.961182,10.754454,-10.175041,-2.459747,9.293180,1.930967,-8.562199,4.250564,12.815216,1.784618,-12.804602,-9.829174,12.182422,5.430898,-9.024405,-6.782122,5.371300,-2.642298,-11.521546,-2.601778,13.647843,11.307059,-13.635413,-6.461284,7.207473,10.523739,-4.898290,0.482833,10.167625,1.498445,-9.236085,-8.756664,15.438947,6.801457,-9.946126,-11.595588,2.981831,2.328669,-9.435985,-3.607093,6.576125,9.023245,-15.667148,-9.883805,9.089289,12.599579,-1.542935,-7.936684,7.031315,6.741592,-3.859652,-7.840173,13.237084,8.388819
0.166000,6.867429,-4.511071,-9.689291,1.639569,14.002686,-8.071830,-15.367008,-1.588503,12.920101,8.996461,-10.493066,0.555048,9.721531,3.249928,-11.078831,4.849911,15.320749,2.103742,-13.583263,-10.150692,11.367807,3.825961,-11.648241,-5.834454,5.662719,-4.509321,-12.060760,-1.677364,14.263979,10.363164,-14.649493,-4.418730,8.982611,10.369378,-4.374276,1.175926,11.597576,2.571510,-11.769062,-9.389055,14.629888,5.185154,-10.997221,-11.877054,2.955129,1.209189,-7.330268,-1.704749,9.484994,8.125062,-13.826993,-4.347268,11.961506,12.649838,-4.381790,-5.750727,7.667210,6.959184,-6.571613,-7.780342,14.560419,6.551779
0.168000,6.156487,-3.531856,-10.089726,2.423513,10.971662,-9.492761,-15.568319,0.020328,15.682515,6.548279,-10.566046,2.463368,9.807757,1.564332,-10.098503,8.191292,14.694518,0.490217,-15.087792,-10.031089,9.971630,2.321234,-7.923211,-2.855709,9.117820,-5.458497,-12.436699,-0.760021,13.753664,5.770685,-12.903379,-3.522892,11.727056,5.828973,-5.896712,1.818798,9.922904,1.346303,-14.059112,-7.678739,16.764018,4.494472,-12.679551,-9.752574,5.005572,-1.022942,-8.738194,-3.573484,8.696090,6.942331,-15.147242,-4.658592,12.024213,11.734222,-6.741816,-4.000089,7.644059,4.628435,-6.150974,-6.012409,14.111571,4.470616
0.170000,7.449519,-4.779339,-9.033803,3.009440,13.175420,-8.741274,-13.508546,0.775365,14.616345,7.170527,-7.434831,0.706093,7.128940,-1.267690,-11.569681,10.296682,13.348753,-3.055562,-14.543821,-5.724769,9.044544,0.238623,-9.658911,-3.618297,7.434625,-5.520585,-12.369786,0.081738,16.027400,6.276955,-13.266276,-1.643930,10.164807,5.931978,-7.236040,5.357632,11.415792,-0.553902,-13.531480,-4.889846,13.880258,1.175293,-11.689303,-8.531422,7.500449,-1.158148,-9.083559,-1.228973,10.138407,5.561474,-14.751180,-2.551370,13.382550,9.917065,-8.311995,-1.704918,8.880732,3.382898,-9.047131,-5.639822,14.871036,3.522353
0.172000,6.701426,-7.071529,-9.203083,4.393361,11.453482,-11.606725,-13.392670,3.511996,14.142188,2.248981,-7.546522,3.102379,7.854692,-3.271193,-11.663607,11.178042,11.817639,-3.040418,-15.056737,-6.869987,9.843526,-0.151062,-11.784233,0.510112,9.814318,-9.933108,-10.039091,3.638511,14.425048,2.701879,-14.593319,-1.222329,12.134650,4.927705,-6.372717,3.492505,11.903526,-2.993876,-13.076690,-4.831075,14.526158,1.458557,-13.153845,-5.073257,7.343852,-3.201756,-8.500071,0.411272,11.669374,3.676592,-13.273595,-0.342851,12.813590,7.647558,-7.267863,-2.163516,7.866085,4.416816,-10.061633,-4.494193,12.711329,1.890558
0.174000,6.639949,-7.319161,-7.342444,5.877946,11.524262,-11.697401,-11.436037,4.652703,12.951031,1.228352,-9.561103,3.134331,8.581102,-3.903129,-10.507651,11.321715,13.366652,-5.132848,-16.519149,-2.104478,10.671640,-1.052631,-8.796697,0.952091,8.908964,-8.923763,-11.543606,6.138592,14.572626,2.654709,-12.263927,1.198394,10.710590,3.624955,-9.485358,6.374775,11.046192,-3.435625,-12.389402,-2.096996,15.654988,0.513426,-12.989866,-6.395293,9.470860,-3.331866,-8.557363,-0.776543,11.545400,-0.178858,-12.239115,-0.638285,12.711477,6.620990,-9.575682,0.369689,8.771612,2.369657,-8.973490,-2.417150,12.221616,-0.210974
0.176000,3.748485,-7.661033,-5.486642,9.442505,9.547206,-12.247734,-12.226157,7.751266,13.752774,0.117604,-8.428426,5.651256,8.096697,-6.323879,-8.535025,13.516715,11.776585,-5.941435,-13.003550,0.752203,11.173560,-2.762503,-9.810742,3.424831,9.545823,-7.943084,-11.131206,6.434118,15.499382,0.147125,-12.356719,2.348769,12.168901,0.643617,-8.138092,6.080927,11.232121,-5.343191,-13.323424,0.793997,14.646928,-0.188072,-12.646388,-6.542071,8.257346,-1.957423,-8.341253,2.194165,12.601310,0.993445,-14.321997,0.726172,13.418500,6.182121,-9.413391,-1.313223,8.508077,0.682886,-9.381682,-2.327368,13.737682,-1.456422
0.178000,5.291794,-8.316663,-6.397381,7.887771,8.644849,-13.445193,-10.028174,8.621911,12.211718,-1.877361,-6.032755,7.796749,5.209371,-6.799392,-9.368287,11.856001,11.183123,-7.521083,-13.980614,2.710339,9.183187,-4.634188,-7.921652,2.506046,7.831989,-10.753887,-9.926061,7.311033,14.033837,-2.103674,-11.245265,1.589083,10.318626,0.334438,-8.822667,5.617941,8.548815,-6.233826,-13.674880,2.117990,13.860620,-4.046367,-12.612342,-1.741408,9.411984,-4.145013,-8.676682,2.752268,12.811550,-0.524939,-14.526511,2.345180,14.553741,4.391809,-10.942588,1.069369,8.920732,0.870255,-8.721926,-1.781738,11.355473,-5.497661
0.180000,2.366751,-8.466983,-2.956210,9.882746,8.201671,-13.698537,-8.357636,9.203601,11.585705,-3.976344,-6.376958,9.080342,6.976216,-6.025598,-8.627897,15.068663,8.566657,-9.603440,-13.333685,6.257602,9.532467,-7.049111,-8.049496,5.351400,8.166799,-10.961380,-8.099962,9.825342,11.740798,-3.046398,-11.897624,3.426120,10.803784,-2.073204,-7.258850,10.233283,6.638647,-7.223123,-10.734314,4.050710,12.374474,-4.702516,-12.135287,1.030032,10.786934,-5.200178,-8.348524,4.767791,12.838868,-2.479522,-13.788324,4.675710,14.026208,0.606693,-11.860289,2.199188,9.390647,-1.857148,-10.365657,1.287989,10.765674,-4.195465
0.182000,3.242351,-9.515895,-3.771911,11.120519,6.426672,-12.829867,-6.698353,11.012655,9.111131,-3.977597,-4.885823,5.941415,4.321502,-8.624362,-9.159554,15.561302,10.140298,-11.235534,-11.327587,5.965141,9.187921,-5.331910,-6.006504,6.139894,7.279523,-11.239227,-7.349349,9.514050,12.430957,-7.284322,-9.310563,4.894502,10.468457,-3.111709,-9.608487,8.468483,8.731292,-9.120426,-11.653883,6.998419,10.952650,-7.656637,-12.457045,0.383990,11.627060,-6.181695,-9.239059,5.231786,10.843641,-5.623600,-11.775791,4.878286,15.859170,0.902819,-10.488212,2.232409,7.856982,-3.715249,-8.887556,4.231007,11.126380,-4.885125
0.184000,0.222230,-10.160345,-1.586317,12.440241,6.066694,-15.084403,-7.471589,10.963147,9.004945,-5.289962,-3.150058,7.686257,3.377905,-8.508801,-6.607101,13.571743,6.273106,-11.001943,-12.396180,5.927852,9.508096,-7.440239,-5.969141,5.380786,5.643588,-11.815129,-6.699122,9.459800,11.506930,-7.194432,-10.065384,7.329354,9.681425,-4.912777,-8.224201,8.359226,6.916363,-10.461427,-10.909012,8.377818,10.674465,-5.528547,-12.164690,0.775922,8.678643,-7.322782,-5.795119,7.210541,9.639585,-5.707094,-11.446440,6.764973,15.481050,-1.167504,-10.706954,3.269110,7.701538,-6.185016,-10.348491,5.144395,11.583077,-6.492817
0.186000,-1.108900,-10.476251,-1.148740,13.359053,3.660835,-16.096613,-3.510433,13.143168,8.278623,-7.005583,-2.859673,9.377600,2.646108,-10.634924,-5.906657,14.655209,6.957775,-12.521500,-10.330482,8.966217,6.455359,-8.621372,-4.870219,7.565974,5.778023,-12.219870,-5.317520,14.351773,11.577684,-6.701074,-7.347079,7.925309,7.230537,-5.261293,-7.479975,12.322821,6.390379,-10.764728,-9.208371,9.118721,10.591961,-8.211284,-11.040428,2.958610,10.727642,-7.573783,-4.120457,8.665293,8.783605,-6.064307,-10.844559,8.726369,13.768324,-2.904551,-9.517485,5.788058,7.956340,-7.296824,-7.001465,6.565613,9.517788,-8.927608
0.188000,-1.156149,-9.168918,0.933183,11.883741,3.785251,-16.812262,-4.358178,12.692685,5.379748,-7.877046,-2.114384,10.531423,1.816505,-10.581745,-2.352302,13.156249,1.529148,-15.070650,-7.218137,10.263847,6.652625,-7.453070,-3.850917,8.148859,2.341704,-13.753344,-2.912856,15.162529,8.138046,-9.274459,-8.661943,8.738270,6.812196,-7.000171,-6.727014,10.099131,4.028853,-11.936378,-10.244709,10.214430,8.527562,-8.829198,-11.717881,5.775184,8.609344,-7.052046,-6.140644,9.453485,7.412081,-8.415078,-10.247910,9.757433,11.228382,-3.873143,-12.213241,6.247008,5.828608,-7.120490,-7.325316,6.911232,9.161936,-8.051904
0.190000,-1.399597,-12.336671,2.687797,11.523920,0.775207,-15.185651,-3.465360,13.700076,5.133955,-9.652122,-1.439061,9.512199,-1.717208,-9.892701,-1.647757,13.488334,2.330495,-14.686843,-8.463126,10.005853,4.343299,-8.438467,-1.545509,8.219162,2.130838,-12.651108,-1.535144,13.831179,5.872137,-12.482680,-6.151905,9.333358,5.160279,-7.181903,-6.068685,10.827781,1.460426,-13.813847,-5.937100,11.510402,6.493890,-11.504307,-10.414313,5.943254,9.502973,-9.626351,-3.330141,11.770980,5.686989,-12.338544,-8.337956,10.053164,11.160474,-5.952076,-10.809303,7.633358,6.203707,-7.273473,-6.177168,8.402050,7.258508,-9.487815
0.192000,-3.276309,-9.939980,3.684278,13.137747,-1.168187,-15.205682,-1.392657,12.051453,4.101076,-11.224778,-0.027192,8.342382,-0.668011,-12.721268,0.665726,15.021041,0.567617,-14.992279,-5.719798,9.592781,1.793205,-10.490739,-2.792868,8.796639,0.457963,-13.628481,-0.225124,14.672290,6.583479,-12.074772,-4.970426,10.367330,4.686305,-8.256146,-3.370000,12.494691,0.796177,-13.604655,-7.256224,12.918236,6.336186,-11.029142,-9.111671,7.543988,5.776617,-9.615836,-2.711376,11.165611,6.729170,-12.756671,-7.618539,10.426750,9.418957,-5.725129,-8.818510,5.147684,3.889404,-8.335054,-4.757876,10.534190,8.704479,-12.709235
0.194000,-4.998996,-9.340564,4.864600,14.010617,-2.153428,-14.329327,1.223586,13.720183,1.488304,-8.071468,1.464135,9.241396,-2.954196,-11.614178,2.558024,13.101409,-3.581036,-14.939902,-1.471741,11.460209,-0.332040,-9.325215,0.991241,8.290775,-0.965809,-11.364239,-0.020486,16.547100,3.860700,-13.386349,-5.420861,11.105901,3.217868,-7.742326,-1.875603,9.976522,-0.448154,-13.221721,-4.146996,15.596599,7.621172,-12.042206,-7.513114,5.954247,4.197121,-10.185901,-2.219154,12.473300,4.009795,-14.036397,-4.620080,11.795525,8.064515,-9.120853,-9.880551,9.446105,4.901936,-9.341477,-4.558913,11.016431,5.212889,-12.793208
0.196000,-6.689726,-10.232167,6.284774,12.979585,-4.690424,-14.670645,2.228083,11.523429,-0.457332,-11.150814,3.812598,8.643045,-5.152365,-11.079016,4.246912,14.160051,-3.238032,-12.362429,-0.771476,11.359988,1.138159,-9.507301,1.823733,9.210411,-3.955481,-13.360690,2.449332,13.854883,2.769269,-13.158269,-4.836244,9.890655,1.971601,-7.253146,-0.891437,9.957989,-2.183556,-13.507262,-3.754187,13.726079,5.159032,-13.153222,-4.769506,8.401180,3.506119,-9.793265,-0.689599,12.624575,3.185263,-13.317383,-4.735194,13.763375,6.898350,-10.473770,-6.104355,10.197822,3.028203,-10.219618,-2.877594,12.523999,4.339844,-13.957555
0.198000,-7.633370,-7.774408,7.460717,11.642468,-7.082953,-14.171779,4.428341,10.825848,-2.046020,-7.637287,4.114213,8.034379,-5.960422,-10.073431,7.200874,13.960907,-5.323139,-14.794606,-0.606235,11.606009,0.638985,-8.115501,1.887325,9.739006,-3.878764,-12.146969,5.173145,14.951490,-0.054910,-15.010954,-2.417581,8.992157,1.496801,-9.075465,1.438330,11.513277,-2.745321,-14.393228,-0.943836,15.493852,5.022425,-13.472292,-4.677126,10.108774,0.564366,-6.896036,-0.655279,12.217287,1.624548,-14.572295,-1.572107,15.015372,5.788272,-9.920976,-5.928181,10.860777,1.549192,-10.548518,-0.436034,13.761784,2.930820,-14.946135
0.200000,-6.550740,-7.933967,7.933522,10.105175,-8.853694,-13.780913,5.861567,12.024995,-2.001665,-9.416645,3.781304,6.950394,-9.105802,-8.021041,8.462033,13.067820,-6.962974,-13.516632,2.129926,11.495498,1.148535,-10.733870,3.709606,8.137081,-7.135687,-12.147687,4.638801,15.373959,-1.809120,-13.236552,-1.296925,11.240662,-1.496090,-9.575220,1.609418,10.957001,-3.967966,-14.030003,2.759652,14.040733,1.639475,-13.449366,-2.724251,9.237741,0.121377,-7.599112,3.110589,12.143515,-2.069455,-14.788726,-0.727218,15.164657,3.984495,-10.224305,-4.066652,8.805513,0.256149,-9.621132,1.675829,14.715620,3.443370,-13.513154
0.202000,-6.814058,-5.480359,10.344735,9.518655,-10.444951,-12.831634,6.986221,10.726701,-5.893174,-8.246683,5.778619,7.394186,-8.712299,-7.906746,9.257259,13.217079,-7.705243,-11.728695,4.447077,11.861328,-3.030650,-8.819844,4.476794,6.655315,-8.440396,-10.245326,8.527631,15.727242,-3.546527,-13.321683,0.044446,10.208374,-2.558859,-8.701962,6.328869,9.281123,-6.193448,-14.521019,5.344837,15.930391,0.126844,-13.414309,0.383187,8.441218,-1.677100,-7.349533,3.462809,12.903308,-3.584093,-13.329930,0.541465,13.808691,2.660467,-12.048964,-2.938357,8.291757,-1.115625,-9.509011,4.273809,14.543507,1.645533,-13.821470
0.204000,-8.638452,-5.424322,11.976939,7.612754,-10.618787,-11.296933,7.624670,10.929417,-5.947426,-7.624255,5.800411,6.520904,-8.917418,-8.921968,11.171023,13.394596,-9.437377,-12.094009,4.436707,10.886842,-2.872446,-8.039088,6.113824,8.369706,-10.278026,-10.569522,8.370044,12.479256,-5.359231,-13.844977,1.724514,10.168800,-3.605573,-8.428787,6.937472,8.124324,-8.683249,-12.655227,6.404853,15.078858,-1.548014,-14.194537,0.138850,10.263379,-1.900804,-10.396397,5.382349,12.348903,-6.198418,-13.438009,1.404184,14.839189,-0.668652,-10.495344,0.981487,9.625559,0.324622,-10.121451,3.052755,14.822609,-0.273894,-15.644146
0.206000,-10.131025,-3.493888,13.299852,7.154815,-12.065326,-10.884005,10.799566,12.005553,-7.203230,-5.287812,4.953810,5.220484,-10.714656,-6.361582,12.816610,10.726051,-9.162096,-11.215803,6.640069,10.682760,-4.427054,-5.827372,8.025744,5.878602,-11.019497,-9.187780,10.371771,11.584140,-7.565694,-11.082737,5.252984,9.511492,-4.454013,-8.782122,8.026279,7.631876,-10.515324,-11.033764,7.768657,15.281814,-0.509812,-10.861874,2.601944,9.734590,-4.347551,-10.128980,7.438100,12.243512,-6.914431,-13.783397,1.181260,14.425197,-0.915817,-10.515636,1.989120,9.089849,-3.378517,-9.904497,4.590374,12.169536,-2.977786,-15.069460
0.208000,-8.671208,-1.730736,13.687720,3.901648,-13.392488,-9.360039,7.758429,7.798475,-7.604387,-5.389904,7.002721,4.098330,-11.095189,-5.507919,14.659580,10.548695,-10.134468,-9.251378,8.208427,7.505848,-7.566706,-7.563453,7.318343,5.040397,-11.378023,-9.567360,9.520739,11.541010,-7.740789,-9.294231,4.300777,8.008306,-6.114458,-6.145408,9.772637,8.861191,-9.463211,-10.747598,6.853713,11.537221,-4.387354,-11.806822,2.236128,7.619122,-7.271508,-7.303247,7.721456,9.510731,-9.239375,-11.434659,4.677044,15.336789,-1.201528,-11.571251,1.663764,9.736114,-3.396269,-8.726586,7.720879,10.680715,-2.990344,-14.297079
0.210000,-11.211268,-1.290349,15.969032,3.094263,-13.607679,-6.436429,9.100797,6.768776,-8.592840,-1.554012,8.692873,1.960822,-11.516695,-3.940244,14.196750,9.948668,-11.320580,-9.122771,8.963390,7.550001,-5.639918,-8.553627,9.517790,3.403733,-9.752680,-8.395714,13.028246,9.576032,-10.510220,-8.200179,6.770523,6.924918,-5.790104,-5.546815,9.760756,8.844866,-10.567959,-10.514237,12.434291,11.571607,-4.850395,-11.120873,4.184619,6.495078,-8.548411,-8.604987,7.298594,9.762909,-7.300407,-12.755678,6.417599,12.418527,-2.762347,-10.121150,2.750543,5.959771,-4.662416,-8.213644,8.819519,10.781663,-2.932554,-14.647464
0.212000,-10.924581,-1.225694,14.114483,1.048908,-15.324015,-6.666653,11.051319,6.274485,-10.202393,-1.294262,7.598567,1.618653,-11.753850,0.685213,16.029330,6.827193,-13.275071,-7.793311,11.318544,3.388930,-7.073816,-6.042038,10.342667,1.608859,-15.962342,-7.889023,12.622036,10.374966,-11.862180,-10.519229,6.487126,8.604068,-8.247839,-2.900588,10.282248,7.891776,-12.179606,-8.169215,11.311606,10.485213,-5.235857,-10.459336,4.555807,7.501175,-9.243904,-6.699103,10.516229,8.158131,-11.079493,-9.176743,6.181780,13.966760,-5.951205,-7.895127,6.800734,7.652641,-6.575501,-7.309871,10.029933,8.635849,-5.947179,-12.835694
0.214000,-9.761225,-0.510517,13.430561,-0.129998,-14.359106,-7.472384,10.880844,5.174256,-7.413586,-0.042534,9.529878,2.118885,-11.034442,-0.662552,14.226010,5.377585,-13.642759,-5.859229,10.563107,3.558960,-8.679185,-3.364970,10.504948,1.176424,-12.793771,-5.967716,13.774747,6.638923,-11.829559,-5.926626,8.125127,7.838451,-6.113061,-2.562511,10.970613,6.137202,-10.707712,-7.417724,13.353031,6.959529,-8.386590,-10.035711,6.160287,4.514840,-11.143365,-7.645988,10.137570,7.136675,-13.421794,-9.865628,6.223744,12.372806,-5.651526,-7.051392,7.874721,7.758605,-7.977303,-6.433804,13.090070,9.040563,-9.066014,-12.789513
0.216000,-12.690417,4.124400,15.653518,-2.282256,-16.089782,-2.867531,10.007058,3.075645,-9.416680,0.828981,8.583705,-0.506096,-12.147184,2.404004,14.542155,2.319917,-12.046037,-4.636313,10.736541,0.299595,-6.272474,-1.728244,11.725291,-1.585571,-12.943544,-4.869108,14.731866,6.048224,-10.346182,-4.214891,8.394520,6.696615,-8.395100,-0.051411,11.106227,5.055760,-13.633979,-5.293228,14.201216,6.098663,-8.559470,-8.985666,8.195163,3.623006,-11.822666,-4.277153,11.055041,6.421119,-13.339296,-5.262839,7.540082,10.933254,-6.982125,-8.028026,7.512506,5.836439,-7.088429,-6.170016,11.752928,7.660559,-8.108711,-11.959936
0.218000,-9.997624,3.623074,12.433458,-1.758608,-12.859388,-2.924540,12.040083,1.598948,-10.857743,3.259689,9.107345,-3.002335,-12.260548,3.214792,12.961755,3.847907,-14.476567,-4.184140,11.333149,-0.657320,-9.036093,0.330770,10.207518,-2.682439,-12.198314,-4.455928,16.140582,4.437833,-15.501784,-3.028753,8.598991,4.922254,-7.668391,1.303066,11.476851,1.284454,-12.943739,-5.596555,14.784286,3.905892,-9.761604,-7.369544,6.331754,4.215755,-8.023603,-4.637814,10.795484,5.810316,-13.029011,-4.692948,8.727011,12.804354,-9.264517,-4.870371,10.262943,5.134381,-7.742133,-3.060487,11.557254,7.209762,-9.794043,-12.885637
0.220000,-10.794606,4.387928,13.954673,-4.548209,-13.379022,-2.864147,12.201439,1.065711,-10.112639,4.480467,7.971702,-1.477634,-11.151001,6.516582,14.667056,3.103495,-14.399548,-3.103834,10.719904,-0.354743,-8.305601,0.162089,10.908045,-5.805281,-12.976224,-3.274444,14.689293,2.351092,-14.140557,-1.253894,9.632805,3.874899,-10.155002,1.579166,12.773417,2.348724,-13.415323,-3.127334,13.131691,3.438197,-9.920346,-7.104489,9.035569,1.165624,-10.976490,-3.938878,12.126611,1.202062,-14.189152,-3.651544,9.536747,11.032012,-8.723408,-4.243984,9.074312,7.373440,-8.743535,-4.449290,15.879818,2.437200,-10.643860,-9.082619
0.222000,-9.818680,6.524461,11.349188,-6.194223,-12.298441,0.342109,10.461187,-0.529631,-8.620758,7.775140,11.205276,-3.516683,-9.115547,7.666648,11.944116,1.099382,-15.050782,-0.488240,10.060463,-3.904150,-9.288712,0.135225,12.447210,-7.610386,-12.060444,-0.524440,15.679450,-0.721370,-15.212750,1.073651,11.834414,2.039313,-9.439173,3.286324,10.762232,0.645653,-14.868571,-0.266263,14.503344,0.036291,-9.926503,-4.419681,9.210665,-0.987087,-8.733006,0.338500,11.965534,0.254159,-17.044169,-1.541563,13.226700,6.181079,-9.065446,-0.700504,9.117108,5.221607,-11.190895,-1.605373,14.477478,0.822704,-11.129200,-11.386271
0.224000,-9.606640,7.437282,11.797978,-11.251547,-10.668156,0.805915,13.573023,-3.444446,-7.405796,8.054564,9.450929,-3.142361,-10.856508,8.999158,10.829135,1.371442,-13.857100,2.559633,10.188373,-2.958374,-9.879728,2.994156,9.570647,-7.903551,-9.766239,0.495361,15.262004,0.628413,-12.550673,2.975919,8.412798,1.353908,-8.866034,4.593777,11.890961,1.336071,-13.034675,1.769364,15.159418,-1.319948,-11.915011,-4.699512,8.574961,-3.942160,-10.267176,-1.265238,11.839083,0.402651,-12.392741,-0.140593,12.396441,6.761169,-10.055971,-1.613833,9.712694,2.714605,-10.162265,0.371084,13.980800,-1.859069,-13.639065,-7.920666
0.226000,-8.822927,9.657899,8.447934,-10.923796,-9.863423,1.508964,13.667596,-3.777868,-8.480153,6.622006,9.759541,-6.343581,-9.150065,10.227202,11.365235,-0.585555,-13.259865,2.421834,9.130235,-3.982803,-9.361007,3.250206,8.801380,-7.046908,-10.245811,1.314316,13.365779,-2.124956,-12.907029,3.122401,10.586492,-0.296931,-6.923915,6.104191,9.939565,-1.516907,-13.841483,1.569933,13.162823,-2.644797,-11.160697,-2.096922,7.741220,-3.377194,-9.241063,-1.425118,12.077470,-1.819812,-14.218609,2.226939,13.987308,6.123831,-8.605492,0.715723,8.120192,4.626259,-10.934004,3.176143,13.138668,-3.354852,-12.342946,-5.395551
0.228000,-7.720385,9.929930,10.135116,-12.389997,-8.526293,2.796850,13.112379,-4.857539,-5.383793,10.567436,7.945493,-7.959320,-10.228228,12.719247,8.456937,-2.665745,-12.953237,5.211082,10.783703,-6.288216,-8.320142,4.174729,8.176278,-10.092942,-8.744904,2.446471,13.407559,-3.213574,-13.407873,5.470663,11.135725,-1.608786,-8.105551,8.723025,10.196057,-2.425060,-13.713101,3.501674,13.790586,-3.996468,-12.631201,-2.897359,9.100087,-4.888420,-9.570331,-0.160301,13.810473,-2.257802,-14.819195,4.750240,12.661466,5.188312,-11.052577,-0.067226,7.042514,1.420316,-10.203441,4.567933,14.006951,-3.777425,-13.336477,-4.995089
0.230000,-8.463254,10.898790,7.760638,-12.252357,-5.368588,3.701216,10.742441,-7.028827,-6.285738,7.291656,6.478754,-9.958414,-6.146058,11.750945,6.540347,-4.855709,-12.775401,5.796325,10.076557,-8.047191,-9.614674,5.454701,7.833521,-9.504318,-7.321731,3.583573,12.681384,-4.806387,-10.005558,6.243189,9.346771,-2.005444,-6.083518,8.605234,6.361189,-3.617552,-14.920494,7.449726,12.445593,-6.540396,-12.300332,-0.449945,8.165113,-6.727945,-5.504998,3.128379,13.488881,-4.588600,-14.398248,5.722255,14.720746,1.290553,-10.186239,4.090537,8.082386,-0.143765,-11.132710,3.599420,14.349288,-6.487186,-12.812459,-4.431745
0.232000,-5.481495,11.045100,5.516378,-15.856486,-4.634724,5.953483,10.643571,-6.666467,-4.409383,11.584971,8.599095,-8.106497,-5.541621,12.859406,6.423813,-6.988682,-11.799445,6.283058,6.400170,-9.426950,-10.281594,7.705001,5.560459,-11.973448,-5.110219,6.079114,13.342556,-7.365366,-10.958909,6.753715,11.044693,-1.616533,-7.482293,9.778491,4.565805,-4.576828,-13.810366,7.482632,9.944608,-8.191994,-12.575405,1.190925,8.426223,-6.366189,-5.758034,2.056417,11.196973,-6.823506,-13.401891,8.386075,14.643934,1.708013,-9.722695,4.244255,5.845789,-1.083383,-11.639479,6.944611,12.625887,-7.716629,-15.843393,-2.610842
0.234000,-5.288694,12.977660,6.630214,-12.970831,-3.804484,8.120203,8.503726,-8.591927,-1.376990,8.278643,6.027898,-7.673990,-3.464790,13.159247,3.375956,-7.232696,-11.897427,5.036314,2.706828,-9.735152,-6.436610,6.439722,4.737776,-12.763816,-1.903399,6.691881,12.950931,-8.524919,-6.301054,8.676140,10.516244,-6.245083,-4.330479,10.296627,2.906730,-5.649457,-13.447179,8.380018,10.778588,-8.711212,-13.142195,3.024839,7.555723,-9.630632,-2.210214,5.683677,10.719725,-7.931298,-11.890186,9.017719,15.176354,0.106934,-9.314964,4.938577,4.599651,-1.913580,-10.052190,7.190157,12.819619,-10.725526,-15.139716,-1.942658
0.236000,-4.206458,12.086100,4.109396,-13.412658,-0.574357,7.797213,8.855299,-7.412938,0.914200,10.021424,7.657627,-11.759379,-3.360513,16.072849,2.522863,-8.006766,-10.114046,8.823659,3.763111,-9.167538,-7.298631,7.132136,1.922487,-14.379793,-2.610677,7.775231,12.316805,-9.681418,-6.668609,8.283701,11.288624,-4.735130,-5.448695,13.213721,-0.488103,-5.163981,-11.742285,10.315847,9.228029,-8.669457,-13.754120,4.211365,8.329064,-10.806597,-2.854461,3.980451,10.963891,-7.747351,-9.713406,9.529253,13.473437,-2.322245,-9.684531,6.081669,4.589343,-1.718808,-10.795759,8.257823,10.253686,-11.347693,-13.884939,2.037295
0.238000,-2.853034,14.252536,1.729735,-15.877727,-0.872721,9.529152,6.908367,-8.676935,0.599944,10.425110,5.021355,-12.151882,-2.777084,14.671413,-0.763577,-9.662753,-10.664547,9.097393,3.356142,-10.027180,-8.109920,8.796535,1.232027,-14.173122,1.447370,8.965270,11.772018,-9.088392,-5.109076,7.394265,10.285039,-5.550532,-5.374405,11.959718,0.494402,-6.932935,-10.577839,10.430485,9.513227,-9.213720,-12.301349,3.010594,5.548570,-10.713701,0.861661,6.421803,8.913902,-11.462407,-8.264622,11.442995,13.830181,-1.909052,-7.984835,7.376589,2.054304,-3.363791,-7.772861,11.218126,9.908161,-12.222128,-14.372182,2.663694
0.240000,-2.140286,15.425177,-0.750039,-15.411580,4.265507,11.876414,6.850146,-9.091728,1.843893,8.939834,5.933345,-11.337599,0.767189,13.914084,-1.561793,-10.900537,-8.417043,8.377163,0.583795,-8.805303,-6.570047,9.384903,-0.204499,-12.480327,-0.054825,10.091511,9.881832,-11.604687,-4.533529,8.661228,9.151944,-8.231985,-4.304841,12.451981,-1.748157,-9.033701,-8.752072,10.313017,6.306002,-9.152616,-11.943068,4.350396,3.708630,-10.482884,2.894086,6.016673,8.205893,-12.108140,-7.147082,11.016592,12.872578,-4.582343,-7.315090,7.709832,-1.026769,-4.047953,-8.462158,12.002124,6.704848,-12.986428,-15.218226,2.725100
0.242000,-0.946656,12.534027,-1.740480,-14.856998,4.109040,9.577140,4.894627,-9.905991,4.856625,6.939646,2.634805,-13.048719,2.274444,14.278754,-3.061009,-11.882050,-6.413477,10.918357,0.414210,-8.918348,-7.292817,9.097713,-1.855041,-12.969942,4.673451,11.201863,7.080305,-13.991830,-1.840188,7.201797,8.867168,-7.386118,-0.790438,11.800859,-4.018337,-11.168104,-9.867602,12.831110,5.951105,-10.631605,-9.093764,7.466988,3.757436,-12.250105,1.822637,9.186754,8.514918,-14.488099,-6.361603,11.428475,11.811563,-5.215849,-4.316408,9.475535,-0.820454,-5.786739,-7.087402,11.405412,7.729040,-13.319597,-13.854158,6.794230
0.244000,-0.542044,11.589733,-3.533080,-13.409111,5.852917,11.731911,5.024568,-9.388899,3.888350,8.134828,0.603398,-12.623874,2.293967,16.708064,-5.793088,-11.591928,-6.987788,10.622589,-1.091674,-6.709422,-4.973600,9.358221,-2.674196,-14.427780,5.640075,12.443412,8.812455,-12.538830,-0.842433,9.421269,5.740583,-8.160792,0.174764,12.724443,-5.927769,-9.499454,-6.792274,13.101307,3.478225,-8.544048,-9.306453,6.373186,2.565932,-12.001002,5.574450,10.202925,8.541228,-14.212429,-2.893643,10.555881,11.664130,-7.303096,-4.216941,8.736525,-3.512922,-5.532798,-5.436288,12.502471,3.225882,-13.064670,-13.572462,5.716792
0.246000,-0.846950,14.508729,-4.271731,-11.994325,9.415774,11.736567,3.543237,-11.046529,6.517152,3.783188,2.028036,-12.685101,3.304151,13.384512,-5.660863,-14.685496,-3.837361,11.083320,-3.748121,-8.119176,-3.168017,10.799930,-3.071374,-13.685526,9.073179,11.339899,5.788747,-13.429469,-0.935724,7.504431,9.168316,-9.161778,2.051921,11.307469,-6.875724,-11.140857,-5.442314,13.295895,2.666492,-11.692015,-8.665375,5.953870,2.415872,-11.519048,5.893052,10.258642,5.946247,-14.184724,-2.035756,12.563925,12.088948,-6.703978,-4.364431,9.089289,-4.981383,-7.827118,-3.120931,12.900966,0.146912,-14.684997,-13.606330,7.823754
0.248000,1.654695,16.115129,-5.757593,-9.573034,10.456440,11.433729,2.670990,-9.786526,7.631427,2.589579,0.194404,-11.970844,6.794272,13.411442,-9.256558,-13.857414,-2.909781,9.981273,-4.686940,-4.566773,-5.030365,11.799913,-5.658684,-11.069278,10.173207,13.463784,3.545806,-11.678788,1.500196,7.849550,6.567781,-9.495712,3.150609,10.794343,-10.357131,-12.593751,-3.369053,14.175572,-2.149297,-11.455279,-9.671415,9.138774,0.567730,-10.357457,7.444210,10.204057,4.131989,-14.985264,-0.653209,9.821003,11.099320,-7.518000,-1.732985,12.329980,-6.968360,-7.429396,-3.729304,14.170044,0.911057,-13.159688,-12.412440,6.660925
0.250000,2.230485,12.084020,-8.691907,-10.626743,9.339345,11.795079,-1.451210,-7.733966,9.421546,3.779071,-0.826495,-10.741662,7.670415,11.898710,-10.260428,-13.907543,-3.048169,10.486309,-6.630518,-2.686812,-1.261704,11.068108,-8.061579,-11.901986,11.529496,13.026997,1.035413,-13.173187,2.396279,3.676469,4.043313,-10.568650,5.109897,8.580939,-10.606486,-13.791653,-5.084416,13.351029,-1.587631,-8.585507,-6.905148,9.086994,-1.246561,-10.443148,10.228922,10.429094,2.898973,-14.732231,-1.279362,12.988043,9.766137,-9.136423,-2.729063,8.979434,-6.769386,-9.648648,-4.330044,13.680029,-1.521252,-13.510382,-9.889185,9.391747
0.252000,2.775679,11.199085,-9.930218,-8.316148,10.521135,13.009352,-2.920012,-9.512625,9.557760,-0.229993,-0.868460,-11.336733,11.856903,10.116323,-10.921845,-13.595646,-2.123784,9.337701,-7.138685,-3.099966,-0.322187,10.786453,-7.888173,-9.255091,12.469822,14.235378,1.744617,-11.840274,4.303145,6.017070,3.510679,-7.477082,7.605704,7.925873,-11.878290,-14.690896,-0.567397,13.603126,-4.079723,-7.619905,-6.323886,7.624871,-1.465082,-7.963503,12.270009,11.367159,1.363283,-16.270321,3.257709,10.055987,9.002579,-10.320317,-0.209330,9.039071,-9.554161,-7.990428,-3.079240,14.546222,-2.050359,-11.619383,-10.324897,10.922537
0.254000,5.631317,12.257396,-11.138427,-7.454546,11.400546,13.537024,-1.910242,-5.683025,9.653695,-0.945627,-3.888177,-9.815295,9.918696,7.977865,-10.694346,-13.771178,-0.690269,10.240202,-8.728108,1.022415,-0.384917,10.948343,-9.260194,-9.699644,13.142724,16.104620,-1.894851,-11.837977,5.245210,3.431553,3.285697,-6.716267,7.065328,8.521499,-12.515426,-12.923871,-0.873171,11.902930,-4.148163,-5.855979,-6.143117,8.408934,-5.408037,-10.158488,13.957086,10.659603,-0.785533,-15.039067,5.323029,9.889707,9.703665,-9.843480,2.458476,8.135786,-8.966396,-8.884377,-1.583904,14.519552,-5.319217,-10.771093,-9.574742,11.084392
0.256000,5.942811,9.908667,-13.032612,-4.276561,12.141333,12.525191,-4.050979,-7.294718,10.994123,-2.236341,-5.373261,-10.388907,11.158557,6.751203,-12.419919,-14.754093,1.262324,8.513795,-8.879955,2.796502,1.012711,7.171759,-12.017115,-6.628808,11.427094,13.063371,-0.615185,-10.976614,6.455232,0.250097,1.913613,-7.215837,8.750916,7.692492,-12.635807,-13.075655,1.835783,14.445751,-6.417071,-4.235382,-3.855346,10.290695,-6.093376,-6.369984,13.223814,11.433174,-1.489120,-14.326790,7.063940,9.236450,8.263152,-9.885360,0.294914,6.873533,-10.957905,-10.300727,1.463990,14.063428,-4.375706,-9.783673,-7.704216,10.711312
0.258000,6.572429,9.196859,-13.188094,-3.651036,10.211636,12.941402,-4.164064,-3.701464,9.499568,-4.992157,-6.291817,-8.743575,12.579188,5.047691,-12.728899,-15.031925,3.920549,6.065655,-7.404807,3.690791,1.595129,6.977048,-11.520018,-4.075486,14.127994,13.672617,-3.041268,-11.256233,7.573942,1.832215,1.636313,-8.690105,9.179354,3.729300,-14.170376,-14.172471,2.885095,13.984061,-7.238877,-2.440156,-3.893415,8.481006,-7.536389,-6.034207,15.207498,13.690064,-3.388975,-13.708562,6.136115,5.962908,7.453155,-10.143797,4.455364,5.999839,-12.768429,-10.150447,2.139607,13.854680,-7.512223,-9.358145,-8.905784,12.965570
0.260000,7.591213,8.192606,-13.425816,-1.342660,10.101637,13.318790,-5.266319,-4.122866,11.466491,-6.393167,-7.811062,-10.189345,11.861327,1.441609,-11.925968,-15.410579,5.073913,6.642454,-9.519706,3.229382,2.484613,6.978606,-13.645124,-3.018555,12.568451,14.298214,-6.481535,-9.890836,7.329007,-2.589632,-0.258839,-7.583234,8.809172,3.899426,-15.672836,-14.152215,4.060920,10.559861,-8.206481,-0.047347,-2.719150,8.128683,-8.057228,-3.503357,15.192021,11.931284,-4.272564,-11.427389,8.978434,5.040945,5.924833,-10.631178,5.097479,3.281483,-11.632041,-11.167133,4.938634,13.798710,-9.082197,-8.623689,-6.833157,11.076141
0.262000,9.864974,7.808160,-13.193076,-2.099896,10.566644,12.485959,-6.290703,-1.247625,9.782644,-8.237547,-8.892767,-8.369642,13.294759,4.453391,-10.550723,-12.733938,7.195769,5.355617,-8.224734,6.655541,2.043058,5.566691,-13.942898,-1.799607,14.795524,12.241403,-6.454397,-8.435540,9.649877,-4.654121,-0.096296,-6.831413,11.087263,2.180627,-14.344368,-12.103492,7.338531,9.093247,-8.372891,-0.265143,-2.108891,7.889453,-9.984237,-0.408521,14.755465,12.357831,-6.129123,-13.687534,9.617674,1.672738,4.290267,-9.131116,5.052907,4.017596,-11.936717,-11.084792,4.995325,11.654347,-9.306871,-5.041896,-4.776195,13.610668
0.264000,10.837825,5.518423,-12.920907,0.449888,8.756647,12.539178,-6.348325,-0.596666,9.125730,-9.699042,-9.263800,-4.894079,16.296822,0.996200,-11.583530,-12.856237,9.280654,3.864455,-8.886011,6.342511,6.470942,4.742153,-14.609873,-0.061514,12.616594,16.518348,-5.382789,-6.741403,6.995303,-5.243378,-2.098598,-7.242680,13.537111,3.239985,-14.830943,-13.071909,8.450433,9.931200,-10.037871,2.259683,-1.782154,9.068613,-8.778011,-0.789552,13.679692,13.586585,-6.504298,-9.884683,10.582505,1.347710,4.024868,-10.346495,7.505667,2.045690,-13.448831,-10.390929,5.660091,10.727809,-9.320345,-3.293175,-3.478047,12.004565
0.266000,12.595086,4.776946,-15.209388,1.437068,8.178914,11.507437,-7.388594,-0.939704,9.032668,-10.112387,-9.776149,-4.966351,14.793805,-1.576456,-11.574325,-12.658739,7.467865,1.439695,-10.384133,8.930445,5.055514,4.675372,-13.426683,1.552990,12.573313,12.965948,-10.321424,-5.534881,8.056595,-6.161359,-2.708043,-5.800745,11.716310,-2.617328,-13.918967,-13.309838,10.116896,9.070500,-9.322390,3.560135,1.386154,5.511604,-10.291539,1.193192,14.212080,12.203491,-8.214559,-8.916595,11.117621,1.537168,1.791855,-9.497881,6.327167,0.401323,-13.870261,-9.394892,9.345227,9.616530,-12.933243,-2.308778,-3.088133,11.894574
0.268000,11.954530,2.842185,-13.811183,5.279095,6.791371,10.811150,-8.023020,3.173819,8.603780,-11.551092,-10.004514,-2.413714,14.389538,-3.600997,-9.343639,-12.902411,6.721923,2.534240,-8.447137,9.391571,6.688871,2.112816,-15.254058,3.420015,11.110195,14.563000,-9.961206,-5.774969,7.052532,-7.050710,-4.970015,-4.024264,15.155475,-4.108574,-14.165332,-13.278795,10.381296,6.463846,-9.763661,4.785930,-0.044433,6.716417,-12.034250,3.567967,16.924550,11.452484,-9.806222,-10.096751,11.591438,-2.271713,0.299918,-7.329892,9.159782,-2.492650,-12.349237,-12.018805,9.262189,8.445769,-12.700331,-0.954819,-1.171146,11.976262
0.270000,13.600826,0.655271,-14.570980,5.841720,3.655165,11.336541,-9.805548,4.673655,8.232931,-13.120024,-11.414677,-1.016166,13.597719,-5.802822,-7.319403,-12.509069,7.956837,-0.584775,-8.071982,11.873817,7.084503,1.677880,-14.732813,6.361906,10.506792,12.095571,-12.489853,-3.545462,8.961059,-6.767468,-5.244775,-3.909979,13.546237,-6.262534,-12.349655,-10.902167,9.840854,4.375186,-9.839881,6.047448,2.628920,5.594446,-11.901117,3.128703,11.573906,11.940570,-11.645512,-7.769760,11.254205,-3.635468,-0.497221,-9.305526,8.789084,-2.008547,-11.842850,-10.228907,10.971986,7.856122,-14.191953,1.374223,-0.844434,11.524269
0.272000,14.439902,-0.359348,-11.623817,6.149851,2.426260,9.238447,-7.464527,4.430388,6.098997,-13.234197,-10.908342,1.234467,15.122691,-5.561335,-7.062585,-9.318994,7.964559,0.411410,-7.914462,11.811018,8.448385,-1.249480,-14.014936,7.981127,9.255057,12.493895,-10.972750,-0.865097,7.232365,-10.971665,-5.475015,-4.108490,13.383373,-6.090674,-10.819247,-10.222299,12.839643,5.839912,-10.171569,8.468417,2.079303,4.987433,-10.714816,6.797149,11.117886,10.671304,-10.488273,-4.732214,11.245241,-4.127188,-1.177673,-7.573705,10.196928,-5.983692,-12.156438,-8.621186,10.713704,5.771556,-15.339311,3.016013,0.490106,12.471676
0.274000,14.549019,-2.532061,-13.136103,7.111591,-0.936771,7.778431,-9.198310,5.421365,5.682589,-15.134665,-10.482681,2.212844,14.678955,-8.051800,-4.853788,-9.520678,9.711216,-3.116529,-6.054668,13.486944,9.155013,-1.543452,-12.752386,8.754778,8.056378,11.146027,-9.856367,0.262525,7.125256,-12.697825,-7.067232,-2.421625,13.611708,-7.468214,-9.566929,-11.247442,13.265904,1.810578,-7.876136,7.056288,4.386275,4.221132,-10.149281,8.555087,8.984862,9.809024,-11.250603,-1.975146,10.055478,-7.533422,-3.939979,-6.427851,8.277932,-6.228266,-7.016598,-10.045427,12.612440,4.900393,-14.925201,2.850932,3.469233,9.902784
0.276000,11.272917,-3.101903,-11.800071,8.976344,-0.172535,7.331279,-8.210847,6.648225,4.427218,-15.520484,-11.812096,3.907094,13.569296,-8.572647,-5.224817,-7.978834,10.120900,-3.654495,-3.114670,14.399178,8.068869,-0.605556,-11.999417,8.456923,4.654126,8.967410,-12.253429,0.388076,5.073976,-11.107048,-7.081122,0.336243,12.243421,-10.251324,-7.130562,-11.405726,14.958059,1.351088,-7.801697,8.983144,4.219349,2.451822,-8.764564,9.102899,9.616374,8.738251,-12.452810,-2.811922,10.927853,-7.435444,-4.497540,-6.614250,10.074925,-8.326120,-9.234565,-9.497013,14.578635,2.950380,-12.736084,5.254982,4.180357,7.286102
0.278000,14.981187,-5.725775,-12.292784,8.520375,-0.186684,4.624209,-8.841935,6.839702,1.748532,-15.638181,-11.413693,4.250012,12.040238,-11.439412,-1.671536,-5.523628,12.050436,-4.885849,-1.740129,12.828151,9.855664,-3.876787,-13.412599,10.390737,5.727647,8.634397,-12.671483,1.765450,5.205987,-12.976733,-7.777607,1.002409,11.641416,-9.777158,-4.042622,-7.376068,14.178137,-0.225567,-7.010947,10.646957,6.937873,1.859303,-7.437621,11.258217,8.286924,9.023685,-13.341625,-0.623653,10.336738,-7.981718,-6.349191,-6.264714,10.184725,-10.447248,-5.305764,-6.295285,13.609726,1.761476,-13.273081,7.478837,4.192351,8.235107
0.280000,14.079297,-7.137546,-11.076896,8.811967,-4.203846,4.088621,-7.611668,9.796047,-0.799289,-13.451006,-12.866691,5.099736,11.689302,-10.470114,0.073330,-7.680815,9.228957,-5.747524,-1.889829,13.850282,9.522625,-4.376271,-10.247777,12.210077,1.327361,6.264775,-13.033086,5.077003,3.918962,-13.049744,-9.562482,2.305971,12.123543,-10.323404,-4.055346,-6.201506,13.616124,-1.656278,-5.009995,9.308741,6.275484,0.556700,-9.348007,11.940430,5.961869,8.210518,-15.926672,1.339837,8.339061,-7.027864,-6.103585,-4.728575,8.064194,-8.699634,-4.417598,-6.955489,13.281519,-0.324970,-11.521380,9.226192,6.604615,5.854016
0.282000,14.022725,-5.962820,-8.846963,10.527059,-3.346888,4.075236,-8.305113,8.896876,-0.613714,-11.934857,-11.668944,6.450219,10.573141,-9.429222,2.216605,-5.697856,10.306918,-4.198067,-0.636179,12.399513,9.100205,-5.325175,-10.013352,12.755051,0.458380,5.179125,-12.999370,5.409030,2.478867,-11.498961,-7.346953,5.214666,9.090778,-13.822695,-3.020515,-4.549367,14.788224,-2.086240,-5.467381,9.588434,7.089598,0.335064,-9.990966,12.073784,4.655688,2.992927,-14.815477,1.669890,8.356401,-8.787122,-7.424129,-4.867509,10.186307,-9.923960,-2.654231,-3.539925,16.041188,-3.712451,-11.295157,9.639981,7.687453,5.235922
0.284000,13.702026,-8.764444,-8.107606,12.591012,-4.946990,2.753096,-7.690693,9.976666,-2.985943,-12.538318,-11.378285,8.008156,8.189838,-12.076075,3.447789,-3.295543,9.977626,-8.151095,1.634077,11.820594,11.360902,-7.806551,-7.852280,11.918593,-3.800120,5.835511,-12.932498,4.049434,1.914059,-9.578859,-10.125417,5.170617,8.535927,-13.522581,-0.544676,-3.622103,13.422826,-3.274056,-3.405975,9.128776,7.280096,-4.439121,-10.210680,12.346100,0.652435,6.155647,-11.988914,4.657026,8.293510,-7.286837,-6.556336,-1.369094,6.808216,-10.987464,-0.785221,-3.598054,15.556201,-1.960495,-9.795889,9.097571,8.911935,4.069935
0.286000,13.319676,-9.957971,-5.958727,9.743370,-7.212665,2.507563,-7.100358,9.656965,-7.084829,-13.424157,-12.256641,8.595506,8.063429,-11.115430,5.338343,-1.761090,9.639155,-6.248804,3.627026,10.716203,11.209809,-7.951822,-6.603786,14.272398,-2.457349,2.136993,-11.582635,8.778706,0.302324,-10.978264,-7.287374,5.551607,6.223515,-14.755159,2.707572,-4.802799,13.947807,-7.320558,-2.770810,8.613665,7.865062,-3.511463,-6.739070,15.248346,0.420378,3.747077,-15.558205,7.104877,4.921895,-9.150434,-9.796422,-0.278664,9.256893,-12.998911,1.280027,-3.289225,13.887939,-6.137089,-10.136383,9.511856,8.918594,3.403879
0.288000,12.739674,-10.472871,-6.398229,9.079760,-8.191401,-0.184878,-7.166704,10.072086,-7.614807,-10.559498,-12.790689,10.306784,3.808731,-11.781399,4.849452,-2.145228,8.608102,-8.202372,6.187758,9.014668,8.980891,-9.448861,-6.693178,16.308898,-3.312427,0.726117,-10.755761,8.178149,-2.774630,-9.831288,-8.084301,7.327195,6.128320,-15.448126,3.427068,-0.504444,13.779565,-7.041503,-0.077533,6.497797,8.219613,-4.400077,-6.613993,16.425455,-3.960142,1.338076,-15.575835,6.500581,2.976142,-7.803874,-9.354218,1.742252,8.179860,-14.386865,1.591691,-2.374220,13.087591,-6.587224,-8.326549,9.090420,9.456017,3.290690
0.290000,11.426062,-12.360708,-2.657941,7.904273,-8.915133,-2.791878,-6.151131,9.487792,-8.058012,-8.000350,-10.979098,11.776537,3.053341,-10.390029,7.599766,0.097871,10.585061,-9.861103,5.836149,7.730748,9.324374,-10.000959,-4.541636,12.350465,-4.462475,2.823608,-13.666427,8.397566,-5.562558,-8.054796,-8.543843,10.597605,7.575788,-15.289707,5.975448,-0.643924,13.808639,-6.753473,0.930689,8.391700,10.542076,-6.868133,-4.894188,13.999712,-3.430604,1.240772,-13.978349,6.870293,4.937894,-7.951930,-8.202385,4.184899,4.276844,-13.592761,3.588745,-1.214663,14.336827,-8.075605,-4.547393,8.800265,9.806189,0.903794
0.292000,9.134754,-12.988049,-2.685847,6.987110,-10.439882,-0.484629,-4.760966,11.906266,-11.036031,-6.434565,-10.221432,13.009172,2.415600,-9.892396,6.175752,0.835182,7.468914,-8.076827,6.935997,7.565992,8.246270,-12.257751,-3.232351,13.277766,-6.349208,-1.486543,-13.248366,8.110622,-6.528202,-6.713441,-9.038107,8.270598,4.142483,-14.835694,6.658975,2.663924,12.693679,-8.446220,1.483656,5.588592,9.605240,-5.206689,-3.671538,15.055451,-5.185648,-2.451314,-16.015158,9.464903,0.754295,-5.955118,-8.175741,3.421990,5.554479,-13.963881,8.223400,-0.130688,15.005407,-9.012654,-4.802808,8.624457,12.419288,-0.851471
0.294000,10.072033,-13.009027,1.462895,7.917654,-10.192461,-2.398310,-3.693451,10.194922,-11.669274,-4.783522,-8.101607,13.169804,0.971159,-10.161922,7.887981,2.094150,6.777576,-8.480075,9.171678,5.908518,7.642156,-13.862781,-0.884656,14.249871,-7.376692,-2.148410,-8.678386,7.815857,-5.828785,-3.613770,-9.644218,12.037702,0.385118,-15.423070,8.739042,2.852476,11.390584,-9.881449,3.347104,5.280573,8.503461,-6.965841,-1.704632,13.135443,-8.801626,-2.005214,-12.670631,10.052119,-1.918310,-6.315569,-13.008368,4.507737,2.937975,-15.457082,8.453939,0.873268,14.135759,-11.538213,-2.965569,7.469362,14.392379,-2.464626
0.296000,8.422425,-13.673983,0.948486,7.158279,-10.028178,-5.555650,-3.463880,10.833653,-13.860238,-1.955753,-9.144093,12.189586,-1.717198,-9.862881,10.002650,4.251937,6.449090,-8.176308,8.453290,2.932041,7.215827,-14.110903,2.088900,11.421078,-9.285667,-2.128441,-7.743517,8.389617,-8.324896,-2.946243,-6.831496,12.430118,-2.110167,-13.537891,8.420573,3.540373,11.608148,-8.892046,4.901916,3.554404,10.730405,-9.960548,1.051679,13.307571,-8.583130,-2.429120,-11.990651,8.935953,-2.348595,-5.884330,-10.399092,5.812903,1.585951,-12.004164,11.713818,1.104001,11.689796,-11.964700,-0.673714,6.628675,12.003647,-3.582268
0.298000,9.260677,-15.479916,3.777343,5.099140,-9.176985,-4.063175,1.012900,9.224388,-12.718161,-0.047856,-6.218493,14.491528,-1.825426,-7.932548,9.903689,5.204341,4.896482,-10.097967,11.354058,1.835712,8.073056,-14.166342,2.172449,10.448262,-9.541874,-5.530990,-9.251648,8.194674,-8.417229,-2.360680,-6.019621,11.439449,-1.454261,-11.756819,10.977735,4.066772,11.101370,-10.449523,5.038827,1.264222,9.546191,-9.297073,1.722988,12.486981,-11.694516,-5.245436,-11.781469,12.337313,-2.141632,-2.824774,-12.472136,5.639225,0.152932,-11.718460,11.639102,3.251090,11.537424,-11.598502,-0.314757,5.780482,13.959310,-4.349552
0.300000,6.764657,-13.689867,2.652834,4.098715,-8.542068,-6.275770,-1.161365,7.693149,-13.646949,-0.349419,-9.261548,15.080058,-2.644921,-6.953187,7.094616,7.263465,5.330714,-7.722772,12.776114,-0.002475,5.329689,-13.447552,3.101073,9.872872,-9.595975,-6.827684,-6.959181,7.595143,-11.603288,3.232728,-8.206618,11.738669,-2.969393,-12.406223,10.505463,5.977584,9.783538,-10.192998,7.919869,-0.308677,9.813770,-8.962129,2.994406,10.837855,-12.881721,-8.573533,-8.612155,12.584258,-5.244235,-2.263061,-11.692246,5.320390,-3.399568,-12.315497,12.371984,5.312981,11.231456,-12.594558,3.123237,3.058469,12.899965,-4.695753
0.302000,5.938582,-15.152960,5.748412,2.479975,-9.367160,-8.909879,0.687381,7.081775,-14.260341,3.346212,-6.126023,16.066778,-4.718462,-6.274141,9.172371,7.694874,1.192342,-7.925876,11.119466,-2.321434,4.426527,-14.403040,7.886717,8.970872,-9.242313,-5.592649,-5.136225,6.322521,-10.461147,2.140417,-5.078608,13.824804,-5.898647,-10.722897,11.197786,8.107283,8.576701,-9.076068,8.316736,-2.410709,9.637297,-10.026048,3.687275,10.704938,-13.479460,-7.304508,-9.627668,11.965038,-6.170042,-0.494737,-10.140023,6.853728,-3.155866,-11.645728,13.112041,5.033087,9.638350,-14.293001,2.725436,1.787075,12.583741,-5.736015
0.304000,3.746901,-15.494995,5.587929,1.051962,-6.848710,-8.215095,4.605140,5.727363,-13.305991,4.006045,-5.186085,15.522754,-6.315325,-3.774757,7.538553,9.506567,1.019864,-6.810006,14.355654,-7.003711,5.242946,-14.652674,5.864983,6.572820,-10.203829,-8.520776,-3.537035,9.190585,-11.794659,3.030449,-5.041252,12.832049,-5.505344,-9.697051,12.058682,8.724175,6.581492,-9.055522,8.766215,-2.934872,7.058307,-11.204351,4.576987,10.402253,-13.532534,-8.816708,-7.287889,11.894718,-8.232578,2.441407,-9.949113,8.441700,-4.854131,-9.417417,13.720660,6.056030,6.926805,-13.737820,6.014998,1.775706,13.525600,-5.894554
0.306000,2.778557,-15.055201,7.013283,-2.081749,-7.281271,-8.906823,2.643196,5.049055,-15.185337,6.688388,-3.896464,14.099229,-6.963690,-2.317275,6.339713,8.018319,-0.475811,-5.803565,13.064249,-6.808241,3.234176,-14.326731,8.262573,6.451860,-8.977092,-9.227666,-2.881889,8.411095,-12.143340,7.147948,-4.504977,12.086067,-7.887717,-6.873497,8.289687,11.225967,6.153394,-7.289155,10.845134,-6.399543,6.960304,-10.104990,7.229544,8.455118,-13.632971,-8.208012,-7.110175,11.595349,-6.692744,2.279453,-7.762853,8.705814,-5.450769,-7.701101,12.896531,7.547676,6.381985,-12.361205,7.155474,-2.367028,12.719252,-9.554535
0.308000,1.933646,-14.104802,8.401782,-2.469878,-5.304983,-7.309046,5.172156,3.311927,-14.961096,9.249667,-2.814882,13.654540,-8.503584,-2.130985,6.252646,9.982035,-1.219329,-4.510925,13.473264,-7.157989,4.123622,-12.778766,9.526415,1.992951,-7.326294,-10.722695,-1.433691,6.799881,-12.593671,8.352566,-4.014473,14.313247,-8.950675,-5.727688,11.390601,10.922183,3.340813,-7.869322,8.471886,-7.433040,7.077498,-10.453980,9.039161,5.742577,-12.404491,-9.762236,-5.031212,11.035651,-9.193482,3.847787,-9.996573,9.093101,-9.560300,-4.144710,14.003536,11.073212,6.378879,-14.522548,5.719188,-2.699036,14.364309,-7.262067
0.310000,-0.908427,-11.496406,8.777440,-3.313101,-3.232281,-10.088229,6.114979,1.945998,-12.253130,11.195902,-1.071420,15.866354,-11.015041,0.149169,4.914503,8.769426,-1.389727,-1.733397,13.150386,-9.638672,0.826714,-14.026024,9.408832,2.948130,-6.717378,-10.657423,-0.708750,5.356641,-12.437638,10.546504,-3.880249,12.383307,-10.133121,-3.002385,11.710253,12.191428,0.791823,-7.789583,10.490518,-8.036138,7.948732,-11.575257,12.129582,5.955728,-10.093936,-9.591018,-2.417070,10.820521,-9.846240,6.238842,-8.399950,8.568224,-8.640085,-4.242031,14.651099,11.712990,4.950171,-15.656497,8.860296,-3.685787,11.441960,-7.816868
0.312000,-0.502127,-13.566631,9.906560,-5.547441,-1.956563,-9.836959,6.223443,-0.639777,-14.943435,11.204553,1.892005,13.937954,-10.875298,4.648573,4.753331,9.040756,-3.991909,-1.629778,12.798072,-11.372349,0.158063,-11.355929,12.451921,1.056506,-5.842736,-13.461538,1.560355,3.498770,-11.082233,11.266090,-2.720434,12.105985,-10.879688,-2.523059,8.163177,11.931221,0.693157,-5.860775,9.928151,-11.405711,6.470566,-10.675458,11.632531,2.966139,-11.352782,-12.316350,-3.415399,8.679088,-8.521453,9.565258,-7.686484,9.341239,-8.785940,-3.919992,13.978863,11.741169,1.843151,-13.083101,6.531538,-5.896212,12.255699,-11.156986
0.314000,-2.287332,-11.366078,10.761129,-6.478924,-0.295985,-10.035984,5.895244,-1.618335,-12.061990,10.897860,1.414778,14.194482,-10.006490,3.945193,0.359570,9.712237,-6.389242,-2.470385,12.208613,-12.723670,-1.299510,-13.362446,13.533270,-1.044649,-5.192302,-12.276058,1.951370,2.468762,-9.877434,12.602409,-1.394510,11.227975,-13.351533,-1.953235,6.704150,12.596012,0.793655,-5.919003,9.568708,-10.945014,2.914119,-8.814148,13.479653,2.735226,-10.990610,-12.391496,1.480372,8.751236,-10.621139,8.827223,-6.641834,8.830784,-11.510299,-0.403231,11.884712,11.273213,0.831519,-11.339984,8.161798,-7.707190,10.688262,-7.895336
0.316000,-4.731258,-12.678029,10.856606,-7.931985,1.923312,-10.201747,6.566141,-0.727393,-13.048634,11.693172,4.042848,13.540166,-12.877737,4.532588,-0.278877,12.108123,-5.322453,2.048718,10.717544,-12.939222,-4.020085,-11.853507,13.017597,-2.009896,-2.618277,-11.893187,2.877701,1.615812,-10.012195,13.741756,0.748330,10.160158,-14.358538,1.771271,5.762947,13.252049,-3.349310,-4.684674,9.232738,-13.976995,2.016647,-8.411247,12.830649,-2.182993,-8.314709,-13.076430,0.417920,7.643967,-7.485787,13.251939,-7.195539,8.780486,-11.179249,-0.450545,12.364024,13.520397,-0.727011,-10.617296,9.522928,-11.277718,8.292975,-9.085806
0.318000,-7.281136,-9.447577,10.124620,-8.405004,2.941446,-10.688223,8.796732,-4.618394,-10.251996,12.949465,4.053781,9.517676,-11.932979,8.131180,-1.701019,11.762110,-7.319448,2.338908,8.208089,-14.168582,-2.539913,-9.401231,13.596643,-3.769865,-1.160432,-12.265254,3.877668,-0.537422,-8.482056,15.213597,-0.792080,9.721716,-12.861922,2.537720,5.188161,13.289965,-5.382942,-3.410706,7.759761,-13.150756,4.138120,-9.844745,12.803136,0.367177,-7.903525,-14.834110,3.340401,7.523275,-8.455534,11.841129,-4.769391,7.166012,-11.917348,1.562756,10.285798,11.163864,-2.028272,-11.063575,9.085890,-9.796900,9.003482,-10.437174
0.320000,-5.667798,-7.358046,8.676572,-8.004391,4.658291,-9.395602,9.791069,-6.538721,-6.961476,11.526491,5.513282,9.536310,-12.450220,6.204595,-5.122875,9.967861,-6.433764,3.830728,9.756886,-13.262222,-3.364161,-8.613260,13.621848,-3.790180,1.762595,-13.936043,4.522238,-0.709746,-7.658816,12.553802,1.773037,8.236888,-14.742929,5.515510,2.863435,15.629140,-2.792639,-2.698669,8.719831,-13.031807,1.841388,-8.745932,13.495551,-4.533474,-6.091236,-14.251551,5.711500,5.903549,-8.231229,11.399297,-6.226858,7.119122,-13.306386,4.918080,8.875308,14.185863,-5.984112,-8.390260,7.691753,-10.962106,7.652569,-8.472513
0.322000,-7.724814,-7.226816,8.887504,-9.859863,6.859066,-8.270096,7.651046,-6.632845,-7.254192,12.272151,4.274295,8.328925,-12.836912,5.056349,-3.808025,12.847716,-7.490807,3.295464,7.299177,-14.226144,-4.252940,-8.754181,12.072621,-6.740999,1.932878,-12.862355,6.856891,-2.399628,-7.793754,15.093927,1.545805,8.008424,-15.993412,6.507055,0.159800,16.272414,-6.812581,-0.719048,5.345936,-14.939891,1.729969,-5.855930,14.014617,-7.148914,-4.206967,-12.180431,6.386954,4.200934,-6.642545,12.163533,-4.609180,7.425476,-13.152376,5.903589,4.076473,13.876070,-4.212523,-6.321323,8.432958,-11.648263,6.073885,-9.645598
0.324000,-9.140382,-6.289033,8.980247,-9.998887,9.672602,-8.350451,10.261106,-6.973523,-6.632486,12.504857,7.877397,7.069858,-12.644367,6.314804,-4.858691,12.319381,-6.168090,6.896520,6.352072,-13.886733,-6.510391,-6.682195,13.931460,-7.315191,4.515091,-11.309051,7.282301,-4.015040,-6.628985,14.872071,3.762703,7.347215,-14.381399,4.434211,-1.269577,14.168433,-5.918613,0.501087,4.456237,-15.483039,0.872003,-5.632311,16.949126,-8.517146,-2.517162,-15.449486,5.368242,2.870599,-7.480893,13.167135,-2.970384,8.308876,-12.801343,6.287482,4.871286,16.306642,-6.118811,-4.611839,9.075961,-12.282780,3.756126,-8.143669
0.326000,-9.955357,-4.051426,6.379911,-9.209124,10.116298,-9.429516,9.614054,-11.148568,-1.727974,12.126636,9.494854,5.627684,-11.048913,7.191829,-8.769307,10.865163,-8.142087,7.301528,4.359501,-12.874686,-6.721581,-5.878816,12.107265,-9.472591,3.771009,-13.145899,7.932607,-4.799543,-3.353574,16.695518,4.439989,6.078649,-14.987811,6.191850,-3.549334,14.301914,-8.213169,1.816728,3.707481,-14.907900,-3.227393,-5.041111,13.879765,-7.850757,-1.956822,-14.272116,10.244199,3.179436,-6.196197,13.304652,-1.096320,5.877802,-15.189080,8.510753,3.349163,14.623171,-8.971185,-5.721090,6.700262,-12.529139,5.921682,-6.756523
0.328000,-8.926863,-2.177015,8.434155,-9.336319,13.453154,-9.085269,11.178623,-11.099372,-2.855018,9.986391,8.802165,3.816439,-10.184630,9.251720,-9.150950,10.394368,-9.794351,9.967282,3.545174,-11.354239,-8.553807,-2.854129,11.871911,-9.822714,8.323567,-12.294239,7.925351,-6.147226,-1.425930,13.093013,4.962127,4.812391,-13.775777,9.112611,-4.145105,15.745663,-7.435755,1.970684,4.411710,-12.693809,-1.465005,-4.190585,15.220888,-9.038061,0.143501,-14.782680,10.514334,0.661066,-2.903497,12.747408,-1.372092,5.455560,-12.836285,10.058096,1.066528,13.412528,-8.357367,-3.520613,5.372463,-9.883622,4.731135,-5.480130
0.330000,-11.723011,-0.796214,6.492437,-8.023175,12.886904,-7.162539,10.328747,-12.582915,-0.695845,9.519879,10.269642,2.287730,-9.386348,10.032915,-11.015016,10.111516,-8.744060,10.566197,0.478797,-11.710079,-9.435130,-1.656279,12.528896,-9.342870,6.491759,-12.907342,9.424264,-6.397092,1.615221,14.176209,7.252708,3.685898,-10.318259,9.044868,-5.852846,14.705299,-10.199904,4.727952,1.942701,-11.951598,-3.416471,-2.418583,12.965555,-10.097461,2.927035,-13.566601,11.540993,-1.094203,-2.531629,10.500275,0.572876,5.803574,-13.388697,10.633845,0.887566,13.910486,-11.734388,-2.742717,6.006545,-10.531845,2.358286,-4.739130
0.332000,-12.413515,1.923867,5.417571,-11.328172,10.589412,-7.254456,9.073971,-14.618756,1.624559,9.199404,10.882419,-0.901211,-10.196925,6.733955,-11.483995,8.288869,-8.047811,11.904498,-1.868777,-9.879197,-11.005894,-1.373228,12.197810,-10.846081,8.919435,-13.752447,9.267205,-8.661978,1.699142,12.727517,8.206787,1.479594,-10.907139,8.057351,-7.883782,14.419494,-10.574419,5.410417,0.458561,-11.991854,-4.343368,-0.379346,14.098013,-11.059458,3.143535,-14.799704,9.765619,-4.747134,-3.122537,13.022813,3.203890,2.906483,-12.497942,12.135578,-3.606678,12.547700,-12.836074,0.348281,3.103447,-10.152890,2.163566,-5.020050
0.334000,-14.703488,1.548415,5.459861,-7.689394,13.761420,-6.373222,9.031191,-12.861976,1.743785,6.681908,14.571684,-1.070012,-7.972204,9.654113,-13.207975,11.161864,-8.892378,11.522363,-0.463502,-9.191094,-11.137699,1.281776,9.399202,-10.107277,9.578936,-10.639754,7.972560,-10.304961,2.526132,9.734564,7.090684,-1.381702,-12.184730,10.045743,-7.052998,11.947308,-9.793441,6.214940,-2.966364,-10.969514,-3.096615,-2.183519,12.671106,-13.333602,4.667913,-11.993926,10.872802,-3.126625,1.891717,10.158494,1.044046,1.074739,-12.218690,13.484735,-3.281494,13.305646,-13.651767,2.003921,0.578429,-8.634606,1.229278,-6.011142
0.336000,-12.168069,2.094297,3.948238,-8.137772,16.233586,-6.556001,8.943004,-14.179743,5.892886,3.089074,12.150049,-3.133911,-6.166214,6.733711,-12.228092,7.555905,-8.726903,10.722087,-3.434499,-8.554860,-12.602674,2.052892,10.268835,-10.339592,10.071560,-11.600036,6.615963,-9.785085,4.732989,9.486944,8.349196,-1.316989,-11.859824,11.928161,-8.475223,14.284152,-10.519068,7.166863,-3.584485,-9.464612,-5.964426,2.328627,11.083568,-12.660527,6.441029,-12.849597,11.088868,-5.940926,1.578123,8.615751,3.560335,-1.975866,-11.398091,13.586994,-4.800055,11.802105,-12.184598,3.176406,0.658902,-8.935995,-1.413349,-3.430596
0.338000,-13.374103,3.851416,2.218061,-6.446053,14.663214,-2.007026,9.550615,-14.455120,7.983758,3.376002,12.932203,-3.700221,-4.309880,7.445192,-14.486727,6.972348,-8.548339,14.001657,-5.766236,-5.678895,-11.635302,3.856338,9.646239,-9.050562,10.811825,-10.512772,8.518853,-9.435401,7.615521,8.089056,10.202974,-5.418526,-9.399059,11.110377,-8.577000,11.916722,-9.841187,7.462668,-4.746621,-7.400589,-7.337233,1.999881,10.002909,-14.909177,7.593379,-12.212223,12.707212,-5.321404,3.690704,9.535396,4.305934,-1.474396,-9.045989,13.243617,-4.916522,12.345756,-13.801585,4.644162,-2.513217,-7.574427,0.661520,-1.328201
0.340000,-13.573682,5.123248,-0.317184,-4.503316,14.024548,-2.080500,10.432347,-15.453488,8.579028,1.736693,11.368166,-5.675337,-3.266858,6.697524,-11.944520,5.918887,-8.141248,13.750737,-7.023669,-3.385141,-13.375332,5.456225,6.710828,-7.783041,10.803802,-8.842004,8.665894,-9.350341,7.922301,6.693055,9.783139,-5.943295,-8.991811,9.209539,-11.723373,10.965918,-8.861763,8.103915,-7.602568,-5.336330,-8.884758,3.003796,8.059116,-13.321035,7.679884,-11.599256,13.175415,-5.926469,5.117215,6.444450,2.440770,-1.055856,-8.091943,14.898083,-8.053220,11.767454,-15.202003,4.123583,-2.893081,-6.214642,-4.703995,0.324442
0.342000,-14.811680,6.435945,-0.325057,-2.875423,13.114112,-2.979872,6.812132,-14.221796,9.449168,-0.604709,12.766456,-5.896136,-1.750884,5.546795,-12.660831,4.598869,-7.977259,13.106883,-8.265769,-1.787217,-14.095532,6.228982,5.053932,-6.114871,11.394061,-7.932546,10.482990,-10.554065,9.727966,4.451791,11.044508,-6.353475,-6.349159,9.795691,-8.980703,9.326754,-10.725015,11.179364,-9.483294,-3.551460,-6.271214,4.998704,7.716324,-11.402448,9.141541,-9.669082,12.043138,-10.245513,7.277104,3.267717,4.441265,-4.748646,-7.460437,15.529221,-8.135801,8.644841,-13.106779,6.501403,-2.577127,-3.216607,-5.060795,0.876626
0.344000,-14.029259,7.328387,-1.592631,-1.419513,14.565686,-0.087014,5.534939,-14.991520,10.089321,-1.760808,14.677123,-6.912732,-0.112037,3.860663,-10.027600,3.341460,-5.058371,12.793571,-13.057605,-0.457890,-13.386789,8.541195,3.877077,-7.989311,11.238315,-6.988900,9.269476,-12.820803,7.817273,1.573724,8.313083,-9.675282,-4.770712,9.745298,-8.342834,8.413093,-10.100794,9.839939,-8.416951,-2.462489,-7.834151,5.892866,5.278789,-13.363151,8.910980,-9.938144,13.735625,-7.586547,8.122868,3.026990,6.139752,-5.296139,-7.297588,14.392337,-9.520281,10.319720,-14.136905,6.694506,-6.320312,-1.571576,-4.997303,0.857187
0.346000,-14.528733,8.451330,-4.087880,-0.714095,13.242377,1.366227,4.984155,-14.173485,12.047916,-4.813663,13.227901,-8.536625,0.981311,2.645221,-13.274165,3.537240,-4.971359,12.183588,-12.580337,1.101488,-13.443541,9.806029,1.794444,-5.092989,11.524066,-4.650322,8.020512,-12.210977,10.660620,0.301457,10.932715,-7.790122,-2.834292,7.594074,-10.069955,7.302137,-9.800468,10.572677,-12.097378,-1.137200,-10.180768,7.225781,2.901291,-8.320584,7.688607,-6.993799,13.171627,-6.627663,7.891094,1.017899,7.052687,-6.316577,-3.737672,11.757489,-9.387753,4.865370,-15.541557,8.090858,-6.149477,2.023896,-6.027791,2.717270
0.348000,-14.108109,7.402705,-3.362974,2.390485,11.673269,-1.350065,3.105012,-14.525383,8.721664,-3.501147,11.649270,-9.526435,0.678954,-0.134942,-10.639708,0.893080,-5.808931,10.833075,-12.777036,1.772976,-15.054560,10.893441,-0.135988,-2.748743,10.777369,-4.485325,8.912296,-12.724318,15.607749,-2.711854,11.118896,-11.452823,-1.895854,8.445078,-10.504393,5.911662,-9.540910,10.506796,-12.934767,0.209656,-9.109604,9.429749,1.195151,-8.457878,9.459356,-7.299059,11.939805,-9.086919,11.091393,-1.903622,6.336891,-7.031879,-1.977147,11.168157,-9.199757,5.202783,-14.772119,7.650992,-8.911498,1.108077,-7.276770,3.145894
0.350000,-14.564871,10.567753,-5.019382,2.177423,9.980696,1.491683,2.493152,-13.836322,12.234826,-5.578123,13.841047,-10.619633,2.836724,-0.247730,-10.522931,0.007148,-2.230187,10.758063,-12.984005,4.386383,-14.289136,12.573255,-0.092276,-0.860616,10.217488,-3.410672,5.034902,-10.636467,13.551152,-4.739248,11.732792,-12.996925,-1.681357,4.727542,-10.314657,5.226990,-7.585752,8.884639,-14.081465,5.917279,-9.133315,10.047403,0.969067,-9.737638,7.505851,-5.524703,10.793249,-7.337209,9.818061,-3.870964,7.845384,-9.502793,1.179172,11.033084,-9.826637,6.135348,-14.758728,8.016222,-9.444408,0.923973,-8.414064,5.297530
0.352000,-15.450862,9.689212,-8.515947,3.996990,9.364818,2.627952,0.927194,-10.315499,12.874395,-7.608225,13.853502,-11.893592,3.276316,-1.108277,-7.868533,-0.830936,-2.141117,11.026343,-14.696529,7.456630,-13.532083,12.065951,-1.425017,0.605962,7.635150,-3.344570,4.829527,-10.277661,14.187953,-5.896863,13.550451,-13.201507,1.132775,6.201594,-6.357756,4.510730,-7.908435,9.121896,-13.853425,5.790496,-11.530931,12.401795,0.700589,-6.597012,10.745868,-2.771395,7.691686,-10.261431,12.414825,-4.951969,8.843821,-8.480963,0.199039,9.903246,-9.029881,4.847594,-12.932394,9.768978,-8.994989,6.635595,-6.743456,4.565050
0.354000,-12.389695,9.472587,-7.323429,6.581209,6.970607,4.602687,-0.810684,-11.030430,10.660103,-7.681157,13.514746,-12.199044,2.724766,-2.723768,-5.613487,-0.272675,-0.743462,11.699711,-14.104443,6.814866,-12.168668,11.582141,-3.981415,-0.756808,4.863436,-0.164338,4.447770,-10.302259,14.296338,-7.606620,10.850546,-14.010946,2.868054,4.216783,-6.179061,1.766997,-6.237412,8.186837,-14.625937,7.308430,-9.146942,10.788406,-2.367518,-5.385064,7.060717,-1.219810,9.093472,-9.692867,12.565993,-8.219264,9.102718,-9.613500,2.751052,7.405292,-8.277186,4.708429,-11.028684,9.011760,-11.175496,6.400170,-10.222292,7.257163
0.356000,-14.677892,11.517860,-9.473026,6.809455,3.036670,4.724132,-2.975584,-8.961591,12.870102,-8.402933,12.992121,-12.968604,4.429525,-2.568044,-5.151473,-3.110805,0.414277,9.383484,-15.268363,7.962060,-11.511034,13.153474,-5.133031,1.648263,6.333694,-1.168593,2.513659,-6.742673,15.145105,-8.985028,10.597861,-13.936203,4.485973,1.743414,-4.258451,0.873796,-4.246791,8.536571,-13.375257,7.771576,-10.243521,13.788486,-4.245294,-4.616732,5.364565,-1.099008,9.856099,-7.812185,12.487238,-7.812688,9.445022,-12.141879,3.974525,7.366054,-6.335742,1.089061,-10.109626,9.048730,-10.908551,8.589990,-9.671219,9.005318
0.358000,-12.196703,12.282896,-7.684968,11.005623,3.083285,5.448942,-3.387755,-7.892980,11.892240,-9.769335,11.289778,-12.369093,9.074173,-5.566621,-3.751457,-4.107042,2.698684,9.237530,-14.246100,10.108455,-10.614039,14.264920,-6.489280,4.184801,2.786355,-0.994950,1.210258,-6.298705,14.196741,-7.528875,11.724648,-14.578914,6.828740,-0.024137,-3.274202,0.539587,-5.827856,7.506670,-16.779339,10.107720,-8.165921,12.417435,-5.367050,-2.373018,5.184807,-0.478392,4.861074,-8.577454,12.499871,-10.033023,9.131160,-14.795420,3.165189,5.340294,-7.850486,-0.146181,-10.172215,8.657607,-11.817090,8.505359,-9.558420,7.873885
0.360000,-11.272257,11.395627,-8.465775,11.224198,0.505326,6.387956,-3.991479,-6.802416,11.349251,-11.685500,13.805272,-12.870789,6.598911,-7.300676,-2.075587,-3.729810,0.536081,5.205961,-15.438121,9.309754,-10.916248,14.347669,-7.579058,5.963350,-2.175996,1.592335,0.660279,-6.323431,13.537756,-11.772826,9.601288,-13.742831,5.844358,-1.673675,-3.076998,-1.021553,-3.780446,5.172581,-15.478248,11.224982,-9.612527,14.185227,-5.778289,-1.692704,4.335065,1.475464,6.404563,-5.443138,12.630414,-12.405798,10.424321,-11.549861,6.624515,2.466895,-4.691482,-0.575040,-8.352642,8.940090,-11.168245,12.838267,-9.078871,10.784497
0.362000,-11.127353,10.854756,-10.657669,13.590878,-1.739569,8.991066,-6.129049,-5.289223,10.652269,-11.717859,9.542159,-12.275097,6.049016,-7.621000,1.871256,-6.083050,3.984999,5.956216,-13.207638,9.657467,-10.633519,15.003477,-8.715439,6.625936,-0.801173,4.199755,-1.105605,-3.693055,13.239788,-10.149796,10.688081,-15.130868,7.848354,-4.050858,-0.173673,0.411043,-2.428820,5.930244,-14.542529,11.928153,-8.611901,13.976566,-8.181151,0.082607,2.803728,3.619829,4.428885,-4.953301,11.745675,-11.931601,7.509917,-12.435511,9.199403,0.279383,-5.257241,-3.434805,-9.074325,9.827217,-11.666379,13.746198,-8.212797,7.675253
0.364000,-8.403454,9.410636,-10.543954,12.425392,-2.775317,9.905675,-5.945930,-2.512054,10.114468,-6.443192,9.483424,-14.002112,8.115588,-10.154915,4.895220,-6.097021,5.768264,2.689559,-10.252043,8.205737,-10.286632,15.167653,-9.967369,7.816118,-3.638195,4.882796,-0.936144,-5.144276,12.664012,-10.391568,9.018934,-14.814661,8.388127,-3.469669,2.110144,-4.963911,-1.415662,4.647001,-13.813086,12.457082,-10.291388,15.336462,-9.993999,2.139183,-0.068187,4.276949,4.230462,-5.840908,13.013051,-12.938509,9.740749,-12.787308,9.404697,0.418536,-3.258421,-3.611816,-7.096409,6.440584,-9.958412,14.187571,-9.809488,11.201136
0.366000,-8.074639,12.728069,-9.482812,12.911412,-5.324315,7.738335,-7.703344,-1.769600,8.828860,-8.930435,6.666652,-11.452213,10.457649,-12.628304,6.693174,-5.624121,6.246106,2.923511,-12.007480,9.863448,-7.706883,14.019160,-8.109527,8.859732,-6.105822,6.779655,-5.261787,-1.099418,13.228975,-11.976827,5.610336,-15.840923,8.964164,-4.406138,3.140849,-4.473254,1.198559,1.006094,-12.553401,13.002610,-8.349908,13.131597,-9.509195,3.489561,-1.007494,5.962501,3.365268,-3.593918,12.274363,-13.101017,9.202650,-14.892568,12.891126,-1.859454,-1.923639,-6.118945,-5.563884,4.737922,-11.494860,16.267039,-10.242966,9.588715
0.368000,-7.105567,10.122661,-9.569429,14.092912,-9.967055,7.757831,-9.876311,0.066168,6.032842,-7.218486,6.106014,-12.624409,8.952971,-14.331265,7.352598,-6.767102,5.827616,1.006211,-8.865662,9.865733,-7.103416,13.644657,-9.737711,8.757645,-7.826916,6.810512,-3.918808,0.198238,11.103949,-9.176836,6.616455,-14.051064,11.087998,-5.992708,6.066718,-6.566610,1.850176,1.337189,-10.830616,12.786754,-7.719801,14.237956,-11.054955,4.668608,-3.080577,7.849341,2.154306,-1.637020,10.864830,-17.261377,8.071879,-13.728613,12.754330,-0.763082,1.591410,-7.218335,-2.727385,4.193113,-10.213777,15.170113,-9.330232,10.593082
0.370000,-4.891488,7.370774,-7.374472,15.067512,-6.989040,11.695949,-9.006334,1.911653,5.547289,-5.252540,3.949492,-11.980449,9.289209,-11.361701,8.011983,-7.720956,7.229610,-1.872716,-9.394840,7.635460,-5.078450,12.234273,-9.517763,10.410797,-8.878404,7.599932,-3.725062,3.890159,9.553413,-11.038812,6.974406,-14.860968,10.304968,-7.439765,6.752084,-7.436161,2.688085,-0.234947,-9.781217,11.656958,-3.912067,15.319077,-10.640519,5.881926,-5.362590,5.977830,-1.459382,-0.691360,8.135596,-13.145045,8.446053,-12.898478,12.749155,-5.110645,1.511764,-7.083352,-2.791134,4.310011,-9.556036,14.327909,-9.013502,11.187136
0.372000,-4.590826,6.890884,-7.556503,13.919268,-8.822940,8.237418,-12.755284,4.700025,3.999892,-4.898580,4.354854,-10.700033,8.318541,-12.398119,10.088014,-6.699045,9.642267,-3.441534,-7.649566,7.734074,-3.252408,13.577258,-7.815604,11.587703,-11.311665,8.289092,-7.062980,4.603514,8.234469,-9.083183,4.506346,-15.417873,13.148791,-8.384871,9.999828,-8.338250,3.093440,-3.728361,-8.316204,12.193784,-5.187796,14.514519,-12.501208,7.550687,-8.554305,8.959121,-0.875358,0.876738,8.867873,-12.516219,5.761844,-11.951355,14.797609,-6.073979,6.023776,-8.541349,0.750098,2.536298,-8.080744,15.482628,-8.629798,11.345197
0.374000,-1.400858,6.823127,-7.814917,14.822120,-11.072483,8.749141,-11.219602,5.776795,2.692086,-1.900602,2.396676,-10.205180,8.042713,-12.218956,10.213467,-9.021410,11.674845,-3.984369,-2.671029,6.460172,-0.964083,11.467736,-9.928570,10.750942,-11.639546,7.951518,-8.198034,5.514747,7.543051,-10.033498,3.417148,-11.402727,8.816590,-10.001517,8.516378,-9.208094,6.573986,-4.654504,-8.732660,9.832028,-3.766596,12.328941,-14.226829,8.249559,-8.493901,10.002642,-1.762760,1.088689,4.543023,-13.129371,6.576500,-11.783256,13.856045,-3.805616,5.603422,-11.128909,-0.552699,0.089294,-7.234628,13.573704,-6.198324,8.567309
0.376000,-1.099254,4.165797,-6.038474,14.122959,-12.165339,9.354435,-11.158494,6.967739,0.519178,-2.473048,0.423661,-8.384899,8.766673,-13.266934,11.181561,-9.480316,9.020630,-7.557535,-4.240168,1.400171,-2.495289,9.711725,-8.533709,12.357164,-13.209182,8.665746,-7.859692,6.133507,5.532326,-8.556382,2.087668,-12.862611,12.736075,-10.099875,12.198118,-9.083228,2.902354,-4.443896,-5.782153,7.659768,-3.769229,12.518005,-14.495294,6.966796,-12.405247,10.245104,-2.009955,2.061443,5.685768,-9.962446,5.742277,-9.938313,15.519552,-8.815205,7.704534,-9.742636,0.138621,-0.185930,-7.789157,14.585922,-7.341035,10.107740
0.378000,-0.583898,4.806897,-7.593575,15.218475,-12.147547,9.685836,-13.747490,7.405251,0.552807,0.693007,-1.955063,-8.192953,7.517456,-12.224585,14.606196,-10.793238,10.949772,-10.396189,-1.822693,3.990803,0.299428,8.632179,-9.953147,8.211701,-14.142657,9.093414,-8.922025,7.496705,3.293990,-6.663832,0.811544,-11.869039,10.736513,-11.050432,12.811544,-10.182936,4.678669,-7.627257,-3.413055,10.429235,-2.514828,11.873755,-11.407946,7.884837,-11.859377,12.098772,-2.862454,4.717173,4.414934,-12.629118,2.497214,-11.392990,14.844053,-7.408057,7.910435,-13.556372,0.052587,-1.260563,-4.032393,13.948259,-6.310499,7.482200
0.380000,-0.723342,3.045723,-4.074890,12.177199,-13.968356,10.006462,-13.923608,7.845776,-0.593047,-0.254896,-0.824591,-7.554170,5.716903,-10.094160,13.775162,-9.051641,12.296423,-8.778068,-0.496088,-0.325389,-0.547322,8.185099,-8.570821,10.371776,-14.175010,10.050836,-9.002825,9.663799,0.209071,-4.079092,0.652885,-10.515134,9.303249,-9.064117,14.508457,-10.035434,7.033585,-9.743128,-3.050105,6.536605,-0.584402,10.236380,-11.077007,10.382824,-10.534682,11.441086,-5.527216,3.959361,1.011458,-11.855466,2.556272,-10.532128,14.936242,-8.859068,10.186332,-12.393446,3.970370,-0.770433,-0.781810,11.387019,-6.006931,8.642689
0.382000,1.220481,3.562431,-2.237884,12.909818,-12.412269,9.035193,-13.053278,11.293804,-1.780029,4.256362,-1.938700,-6.135043,5.651954,-10.829138,14.602409,-8.394706,12.518374,-8.648129,-1.214049,-0.116742,3.514274,8.925153,-6.448635,11.822008,-14.684753,9.139685,-10.472145,10.408383,-1.699779,-1.253915,-1.327772,-7.746210,10.103557,-10.172959,15.487609,-8.517414,9.135442,-9.035230,0.532857,5.209979,2.910504,9.717042,-12.538078,10.545800,-12.401743,12.437423,-4.444131,6.766788,-0.218145,-9.389284,0.675405,-8.186494,13.511889,-9.747662,8.957131,-12.686789,5.785269,-3.688693,1.732330,8.337923,-5.285754,7.337889
0.384000,4.886959,2.110985,-1.918682,10.046710,-12.711158,7.333587,-12.569612,12.269463,-2.695766,5.905302,-3.273294,-2.736653,4.684797,-11.259913,13.967757,-9.531123,12.974654,-13.808500,2.857084,-1.726782,2.608557,6.844514,-6.463537,10.206274,-13.520995,9.739231,-10.036484,11.074988,-1.573139,-2.428392,-2.901848,-8.594351,9.295854,-7.940382,15.016515,-10.741958,7.998588,-12.214548,1.244839,5.979134,0.925601,8.227212,-12.124579,9.385036,-13.052245,12.926436,-6.789324,8.461756,-1.559205,-7.211454,0.845639,-5.615963,13.674674,-10.708533,11.203677,-14.501957,6.305055,-4.352990,2.967837,5.703501,-2.481941,6.967539
